             eV             nm  Absorbance(f)     XX(length)     YY(length)     ZZ(length)      R(length)   XX(velocity)   YY(velocity)   ZZ(velocity)    R(velocity)
         0.4330      2863.0700         0.0004        75.3574         2.7760        -9.5681        22.8551        -4.7558        23.9174        30.3525        16.5047
         0.4950      2504.7500         0.0001        -4.9238         0.4467       -43.4306       -15.9692       -25.1787       -25.3581         9.6160       -13.6403
         0.5417      2288.6100         0.0002        -0.3156       -77.9125         7.2597       -23.6562       -52.6058         3.6316       -59.3544       -36.1095
         0.5795      2139.4700         0.0012        71.7832         0.5342       -12.7206        19.8656        -8.3982        35.3374        40.8848        22.6080
         0.6139      2019.5300         0.0029       341.2081       116.8190       -35.7181       140.7697        78.1623       215.5480       341.2934       211.6679
         0.6269      1977.7500         0.0023       222.8375        -0.8175       -49.3254        57.5649       -24.1622        93.2447       118.4701        62.5175
         0.6584      1883.1000         0.0003       -30.7647        52.5487       -45.2088        -7.8082         0.5385       -44.1920         1.8590       -13.9315
         0.7292      1700.2900         0.0011       -40.6179        61.6751        16.8501        12.6358        21.8741       -21.6049         5.8555         2.0416
         0.7699      1610.4600         0.0022       128.0138       -19.3030         5.8610        38.1906        -0.2682        55.1950        56.1706        37.0325
         0.7999      1550.0900         0.0002       -14.8545       -29.9385        -7.8427       -17.5453        -9.6793        -9.4741       -21.1463       -13.4333
         0.8419      1472.7500         0.0003         4.8465       -36.5245       -11.6984       -14.4588       -13.7857        -0.3185        -6.3158        -6.8067
         0.9333      1328.4900         0.0005        68.4200         1.3105         2.3709        24.0338         1.6481        45.4178        45.7787        30.9482
         0.9766      1269.6000         0.0010       -25.6752         5.6360         4.3044        -5.2449        -4.1751       -19.4222       -18.3047       -13.9673
         0.9930      1248.6000         0.0022        78.2613        -1.1226        -0.2411        25.6325        -1.1568        58.7882        53.3740        37.0018
         1.0466      1184.6500         0.0001         0.9876         0.2450        -3.1074        -0.6250        -4.4587        -3.6330         2.3911        -1.9002
         1.0796      1148.4700         0.0014      -155.0775       -61.4844         5.0081       -70.5180       -45.0167       -90.6038      -136.7244       -90.7816
         1.1233      1103.7700         0.0012       -47.0822        24.1172        -3.0482        -8.6710        17.1376       -27.1143        -4.4801        -4.8189
         1.1655      1063.8200         0.0027        36.8422       -14.6483        12.2689        11.4876        -5.6670        18.6294        10.8227         7.9284
         1.1853      1046.0000         0.0093      -289.8531        23.4347         1.1358       -88.4275        12.2409      -179.0155      -184.9560      -117.2435
         1.1923      1039.8500         0.0016      -106.6148        16.1026        -8.1574       -32.8899         2.4115       -67.7982       -32.8170       -32.7346
         1.2481       993.3500         0.0003        23.6202        17.1456         0.1130        13.6263         7.2854        20.0959        31.5848        19.6554
         1.2556       987.4800         0.0007        57.2189         4.2594        10.1956        23.8913        10.9812        25.2461        28.5771        21.6015
         1.2747       972.6900         0.0009       -15.2834       -84.5035        46.1178       -17.8897       -26.9695        14.6058       -58.0136       -23.4591
         1.3155       942.5100         0.0035       -44.4003         1.4390         7.2320       -11.9098        14.1337       -16.3851       -15.3203        -5.8573
         1.3397       925.4500         0.0025        15.7818       -41.4608         8.0309        -5.8827       -29.8153        13.2061       -12.6618        -9.7570
         1.3699       905.0400         0.0023        25.2299        -3.9597        73.6223        31.6309        48.0662        51.4224         4.2474        34.5787
         1.3896       892.2500         0.0015        -8.6532         8.2004       -42.3995       -14.2841       -39.4054       -31.9589       -14.6076       -28.6573
         1.3990       886.2600         0.0005        38.5944        -5.9686        16.4392        16.3550        10.9016        25.0159        11.4853        15.8009
         1.4190       873.7300         0.0041        22.5946       -13.2962        49.4341        19.5775        17.5272        55.7459         1.7138        24.9957
         1.4325       865.5300         0.0029       -49.2586        13.1849        -7.2907       -14.4548        -6.0702       -23.8844       -11.6862       -13.8803
         1.4646       846.5600         0.0023       -46.9941        -9.3104       -16.2593       -24.1879       -13.0692       -30.8250       -34.8339       -26.2427
         1.4931       830.3900         0.0007         1.9445      -110.0914         3.1674       -34.9932       -66.4997        -3.2500       -60.1104       -43.2867
         1.5149       818.4400         0.0059        73.8677       -13.2002        -1.3508        19.7722        -1.4028        45.1108        31.4364        25.0481
         1.5930       778.2900         0.0101       -77.3161        -0.0132       -22.4405       -33.2566       -38.4690       -57.7716       -39.9895       -45.4100
         1.6025       773.7000         0.0063      -166.1702        13.0343        86.4111       -22.2416        41.1046       -78.1097       -76.3662       -37.7904
         1.6246       763.1700         0.0031         3.7508        40.3614        37.2232        27.1118        48.1507        18.2426        27.1137        31.1690
         1.6340       758.7600         0.0042        53.2157        17.7901       -14.2983        18.9025        -1.2312        22.9696        37.0023        19.5802
         1.6599       746.9600         0.0003       -20.2829         7.5820         2.3740        -3.4423        -5.4449       -25.4641        -0.2555       -10.3881
         1.6925       732.5700         0.0008        46.1341        -1.4200        -6.7598        12.6514        -8.5266        22.2090        27.6753        13.7859
         1.6975       730.3800         0.0109      -318.7144       -17.4693        -2.5061      -112.8966       -12.1395      -190.9988      -159.7397      -120.9594
         1.7606       704.2100         0.0050        93.0844         3.2993       -20.1116        25.4240        22.1863        49.1146        75.3886        48.8965
         1.7657       702.1800         0.0014        15.6036       -77.0770        57.1449        -1.4428        -9.8887        39.9328       -26.6272         1.1390
         1.8002       688.7200         0.0127      -133.4098        -9.0848         7.2357       -45.0863        -2.8711       -69.6733       -76.4591       -49.6678
         1.8254       679.2400         0.0110       131.4607       -64.8651       -19.9162        15.5598       -56.0750        72.1732        40.5425        18.8803
         1.8494       670.3900         0.0127        67.9298        47.6793        12.2320        42.6137        37.6872        74.3895        25.2335        45.7701
         1.8638       665.2200         0.0091       230.9541       -56.1676       -54.0005        40.2620       -48.5038        89.4184        93.9009        44.9385
         1.8932       654.9100         0.0116       210.9232        17.4369        22.5915        83.6505        27.1916       113.3824       133.9657        91.5132
         1.8968       653.6500         0.0002         0.3789       -15.3053        -8.9820        -7.9695       -21.4104        -8.6031        -5.5360       -11.8498
         1.9242       644.3300         0.0002       -22.3282         3.5429        29.4158         3.5435        13.9499        -7.2243        -6.3841         0.1138
         1.9421       638.4000         0.0018       -21.5444       -25.2665         8.0675       -12.9145       -13.9399        -4.0767       -33.8054       -17.2740
         2.0016       619.4300         0.0014        16.5242        74.5099         5.3649        32.1330        35.5517        18.3339        37.3165        30.4007
         2.0057       618.1600         0.0065       -80.1908         2.5806        55.8653        -7.2483       -12.9548       -54.2060       -43.2799       -36.8136
         2.0391       608.0500         0.0061        30.1322      -197.4891         0.7210       -55.5453      -126.2532        15.2759       -77.6746       -62.8840
         2.0436       606.6900         0.0269         6.8116       -46.3572       -33.5135       -24.3530       -38.6996        -4.8132       -31.3882       -24.9670
         2.0656       600.2300         0.0049       -56.7281         0.2661         8.7400       -15.9073         0.8673       -20.1014       -33.9396       -17.7246
         2.1019       589.8700         0.0029        25.0472       -22.5075        26.2811         9.6070         0.0320        25.2622        -0.8609         8.1444
         2.1238       583.8000         0.0021        65.2298         4.3256         2.0535        23.8696         5.7768        30.8740        46.4646        27.7051
         2.1242       583.6700         0.0056       -33.2252         7.0186       -41.3808       -22.5291       -24.2578       -38.3595        -9.8509       -24.1561
         2.1436       578.4000         0.0079        38.6993       -65.9187      -148.5618       -58.5937      -144.2328       -68.7629        14.5497       -66.1487
         2.1553       575.2400         0.0097       -64.7374        33.1674       -56.8726       -29.4809        -0.8687       -73.3480       -14.6201       -29.6123
         2.1918       565.6800         0.0364      -215.0917        19.4302       -56.7385       -84.1333       -25.8058       -78.6781      -148.2936       -84.2592
         2.2124       560.4100         0.0020       -11.0471        14.2795        -2.0438         0.3962        10.0658        -8.8480         0.0406         0.4195
         2.2323       555.4000         0.0088        47.7171         6.1752       -16.5439        12.4495        -9.2551        35.9769        13.5911        13.4377
         2.2459       552.0500         0.0096       123.7857       -24.2111       -11.7072        29.2891         2.5189        64.2372        63.9833        43.5798
         2.2603       548.5400         0.0049       -23.8757        20.1567        30.5324         8.9378        24.0085        -4.5802        -5.5708         4.6192
         2.2819       543.3500         0.0050        -2.9561        56.8271         1.9205        18.5972        31.7824        -3.0085        24.9144        17.8961
         2.3066       537.5200         0.0162       -57.5596      -136.9026        35.9275       -52.8449       -76.7918        -1.9068      -108.9579       -62.5522
         2.3105       536.6100         0.0021        -2.6892        25.5551       -61.8149       -12.9830       -42.5204       -48.3540         6.5337       -28.1136
         2.3162       535.3000         0.0020        61.2955        37.3311        -0.1220        32.8349        47.7237        23.7458        66.3888        45.9528
         2.3644       524.3900         0.0039        51.3211      -118.3707        73.3687         2.1064       -19.4857        56.7520       -36.1557         0.3702
         2.3895       518.8700         0.0687        80.8591      -147.5258       -10.7713       -25.8127       -96.1020        65.5238       -55.0160       -28.5314
         2.3967       517.3100         0.0128       -54.8750       -15.5590       -14.8716       -28.4352       -22.2759       -25.0611       -40.5924       -29.3098
         2.4267       510.9200         0.0051         9.2324        15.9169        -6.8012         6.1160         3.7664        11.3308         7.1289         7.4087
         2.4513       505.7800         0.0066       -54.8367        -2.4195         6.1542       -17.0340         6.5095       -13.1242       -42.8318       -16.4822
         2.4634       503.3100         0.0336       -35.9512       -49.4152        62.4647        -7.6339        -3.2412         0.6336       -38.5973       -13.7350
         2.4857       498.8000         0.0117       -34.0966       -13.7849      -110.0221       -52.6345       -40.4448       -44.1296       -17.2264       -33.9336
         2.5076       494.4400         0.0060         4.5447        -4.8904         1.1420         0.2654        -1.0181         4.5777        -0.8120         0.9158
         2.5264       490.7600         0.0822        94.5738       -85.5656         6.0317         5.0133       -76.2632        41.7318         8.1703        -8.7870
         2.5433       487.4900         0.0029       -45.2257       -10.1821        17.4928       -12.6383        16.7582       -21.4308       -13.2773        -5.9833
         2.5612       484.0800         0.0400       -37.4040        -1.0353       550.7243       170.7617       394.3313       211.2741       -20.6827       194.9742
         2.5905       478.6000         0.0064        -1.2513        79.9331        62.6782        47.1200        85.8892        25.2061        14.6887        41.9280
         2.5986       477.1200         0.0110        29.8669        44.0365        24.4795        32.7943        44.1546        21.0509        32.7559        32.6538
         2.6092       475.1800         0.0324       -66.9054       -68.3910       -57.3558       -64.2174       -92.3821       -75.3070       -39.9752       -69.2215
         2.6212       473.0000         0.0075         3.9496        24.4923       -33.0062        -1.5214       -19.7679         4.4895         9.3676        -1.9703
         2.6333       470.8400         0.0098        29.3044        29.7717        12.2332        23.7698        23.4962        65.3719       -16.3592        24.1697
         2.6525       467.4300         0.0040        -7.0667        25.9576        13.2195        10.7035        22.5427         1.0487        11.9073        11.8329
         2.6608       465.9700         0.0142       -32.7315      -396.4882       -85.5959      -171.6052      -316.0221       -43.5629      -190.4756      -183.3535
         2.6827       462.1700         0.0164        27.1421      -186.8319       -28.3426       -62.6775      -126.3018         1.1976       -62.6704       -62.5916
         2.6979       459.5600         0.0763      -156.4688       270.7180       -27.7875        28.8206       192.5268       -67.7965       -19.1448        35.1951
         2.7118       457.2100         0.0359       122.0250      -112.6421        28.2116        12.5315       -53.7441        59.7466        34.4198        13.4741
         2.7286       454.3900         0.0037        11.1761       281.3481       -45.5416        82.3276       150.3496        -7.1242       112.8151        85.3468
         2.7341       453.4800         0.0324        94.9844       232.1957       -46.1094        93.6902       115.3225        45.4166       139.2318        99.9903
         2.7483       451.1300         0.0609       108.6071        86.9148      -147.4136        16.0361       -72.0058        28.0503        76.7943        10.9463
         2.7646       448.4700         0.0211       -14.0524       108.5594       112.2339        68.9136       132.2778        56.5542        29.6155        72.8158
         2.7714       447.3600         0.0339         0.9816        12.9254        77.0508        30.3192        77.2891        70.0823       -36.7563        36.8717
         2.8023       442.4400         0.3925       348.8241        19.2849        -9.7096       119.4665        12.3029       122.0319       226.7579       120.3643
         2.8044       442.1100         0.0717        49.4636        87.8758       217.6087       118.3160       185.1808       124.2027        53.8945       121.0926
         2.8223       439.3100         0.0562       325.6981        28.0306         5.6075       119.7787        41.4526       153.1213       173.3150       122.6296
         2.8331       437.6300         0.0605       131.8593       -17.8354       162.4589        92.1609        81.5400       149.5834        45.1809        92.1014
         2.8524       434.6700         0.0023        10.1770       -18.7266        -6.5661        -5.0386       -18.7213         2.0503        -4.2160        -6.9623
         2.8667       432.5000         0.0023         2.7118         3.0161       -32.1273        -8.7998       -24.4499       -12.1383         7.3089        -9.7597
         2.8757       431.1400         0.8371       296.8221         2.9836        57.2020       119.0026        16.2776       221.5947       126.3753       121.4158
         2.8912       428.8300         0.1194        -6.3271        40.6797         0.1603        11.5043        37.2316         0.3226        10.6954        16.0832
         2.9041       426.9300         0.0572       -59.2811      -101.9414        -5.0072       -55.4099       -50.0933       -48.4220       -78.3686       -58.9613
         2.9106       425.9800         0.1421      -131.7734      -115.9619        90.0645       -52.5569       -26.6129         2.2747      -118.0924       -47.4769
         2.9285       423.3700         0.1130         5.2812       -16.2076       343.4542       110.8426       258.4046        97.1583         6.4843       120.6824
         2.9420       421.4200         0.4102       -60.8697        11.7260        -3.0050       -17.3829        11.9519        32.8459       -85.4605       -13.5543
         2.9612       418.6900         0.0752      -112.9798         4.0963       -57.8179       -55.5671       -44.6745      -122.3860        -5.3140       -57.4582
         2.9813       415.8700         0.2338        97.1626        -3.6053       260.8948       118.1507       165.2592       134.8686        99.4589       133.1956
         3.0238       410.0300         0.0142       -68.3418        36.1360        54.1807         7.3250        70.1153       -15.9361       -17.9278        12.0838
         3.0373       408.2100         0.0858       104.0043       -16.7696      -334.7106       -82.4920      -141.1017      -188.9531        44.4149       -95.2133
         3.0442       407.2800         0.0394      -133.4555       -65.3193        -2.6201       -67.1317       -59.6743       -99.8292       -63.3172       -74.2735
         3.0509       406.3900         0.0819       -66.8462         2.3584       -28.0426       -30.8435        -9.2819       -59.8406       -21.7990       -30.3071
         3.0625       404.8500         0.1959       -64.6874      -159.0025       -40.5030       -88.0643       -85.9782        11.7050      -193.7172       -89.3301
         3.0806       402.4600         0.1483      -197.1701      -152.7298        25.2257      -108.2247       -91.5497       -74.8852      -172.9347      -113.1232
         3.0956       400.5200         0.1898      -267.7371         6.0535         0.6334       -87.0167         9.8086       -69.2147      -200.7038       -86.7033
         3.1058       399.2000         0.0506        28.1920       -52.6666      -136.5883       -53.6876      -149.6546        -7.1384       -21.5119       -59.4350
         3.1118       398.4300         0.1769      -101.7365         3.8252        33.5712       -21.4467        18.3519        -1.9555       -81.2099       -21.6045
         3.1234       396.9500         0.2525       165.2618        32.6385        24.1671        74.0225        33.0030       148.3251        50.1349        77.1543
         3.1274       396.4400         0.0275       -16.9830       -25.3821        63.0869         6.9072        27.2046        10.7540        -9.5822         9.4588
         3.1409       394.7400         0.3894      -552.4300      -114.5667       -17.1368      -228.0445       -77.8911      -314.9077      -313.6340      -235.4776
         3.1559       392.8700         0.2256      -269.0538      -113.4914        -2.9699      -128.5050       -92.3397       -30.0682      -276.7353      -133.0477
         3.1709       391.0000         0.0088       -43.0767        43.2626        -5.8306        -1.8815         7.1488       -21.1990        15.8818         0.6106
         3.1871       389.0200         0.0814       -30.7982         2.2601        43.5157         4.9925         3.2539       103.4724       -78.5638         9.3875
         3.2117       386.0400         0.0633        55.1660       -36.7935        -7.1160         3.7521       -68.4048        26.4041        47.5479         1.8491
         3.2139       385.7800         0.0602        52.0744        41.5200        64.4408        52.6784        82.6141        40.2271        42.7120        55.1844
         3.2252       384.4200         0.0432        30.2600        31.8921       -74.2665        -4.0381       -55.7081         7.3292        28.3026        -6.6921
         3.2407       382.5900         0.1805       -20.7908        26.0851        18.1869         7.8271        30.1847        76.8909       -80.5755         8.8334
         3.2573       380.6300         0.0241       -25.9264       328.5540       -14.2163        96.1371       257.3440       -34.5823       116.7809       113.1808
         3.2642       379.8300         0.2594         8.5357       -24.9173       -10.1144        -8.8320       -45.5907        61.0254       -44.1000        -9.5551
         3.2691       379.2600         0.0865       -21.9617         9.1900        41.1357         9.4547        -6.1575         6.7628        30.8260        10.4771
         3.2979       375.9500         0.0740      -104.7963       -19.4552        17.2407       -35.6702        -2.8525       -44.5039       -55.2347       -34.1970
         3.3045       375.1900         0.0318        34.8123      -216.6647        57.7820       -41.3568      -188.3323        33.6964         5.7014       -49.6448
         3.3066       374.9600         0.0117       -18.6509         7.9878         8.3743        -0.7630        31.9483       -43.3337        11.3339        -0.0171
         3.3292       372.4200         0.0341       -56.9264      -387.0626        72.9034      -123.6952      -154.4697       -12.2496      -252.1564      -139.6252
         3.3443       370.7400         0.1302       -82.6082        -3.8128        18.9468       -22.4914        21.6664       -54.8645       -21.0437       -18.0806
         3.3615       368.8400         0.0069        -2.1679       110.3823        27.2755        45.1633        67.1629        10.0960        58.4293        45.2294
         3.3713       367.7700         0.0668      -146.5480        -7.7303       155.9863         0.5693        97.7461       -12.8078       -59.9102         8.3427
         3.3719       367.7000         0.0161        -7.8272       166.2563        12.1834        56.8708       133.8177        12.8556        59.4756        68.7163
         3.3896       365.7800         0.0613       -39.7254        -0.0428      -144.6693       -61.4792      -101.3595       -92.2409        -8.4056       -67.3353
         3.4016       364.4900         0.0721       -27.9903         9.6003        -8.7037        -9.0312        -5.5832        -8.3904       -18.9453       -10.9730
         3.4144       363.1200         0.0232       -17.0127         2.1850        69.2601        18.1442       117.1513       -37.7854       -11.0697        22.7654
         3.4377       360.6600         0.0147        18.1963        75.5761         8.6661        34.1462       116.6265       -40.7640        29.2971        35.0532
         3.4414       360.2700         0.0137        18.4823       -99.4426         5.9808       -24.9932       -81.6173         8.7910        -7.6203       -26.8155
         3.4479       359.6000         0.0939       156.3468       116.4219        72.1268       114.9652       163.3856        94.6304       118.8327       125.6162
         3.4634       357.9800         0.0086        -6.5830        25.5112       -47.3460        -9.4726       -16.0364       -17.3918        -2.4135       -11.9472
         3.4706       357.2400         0.0033         1.9226       -30.2415       -73.3574       -33.8921       -90.6510       -10.9542       -14.3434       -38.6495
         3.4831       355.9600         0.0023        -0.3111        24.7779        26.2677        16.9115        28.7258        34.1116         9.9587        24.2654
         3.4900       355.2600         0.0168        16.2311         1.3050      -150.6943       -44.3860      -132.8084       -34.1473         8.0421       -52.9712
         3.4986       354.3800         0.0681       -69.9369      -168.9996        11.1805       -75.9186      -106.0353        26.2303      -169.3419       -83.0490
         3.5096       353.2700         0.0131       -45.2857        52.7583       -74.6913       -22.4062       -42.3407       -47.9506        12.4626       -25.9429
         3.5165       352.5800         0.0091        -1.6784         8.5031        49.0828        18.6358        45.4995       -10.8356        21.9454        18.8698
         3.5235       351.8700         0.0095       -33.8638        71.1495        -0.3584        12.3091        64.9061         5.4586       -27.3165        14.3494
         3.5292       351.3100         0.0041         7.5347       -85.6957       -44.9415       -41.0342      -131.0174        -0.6227       -22.3498       -51.3300
         3.5368       350.5600         0.0077        20.9191       -20.1163        48.5864        16.4631        22.4351        18.4421        12.1645        17.6806
         3.5397       350.2700         0.0399        13.2829       -12.6091       -68.9032       -22.7431       -21.1206       -62.2517         3.2439       -26.7095
         3.5599       348.2800         0.0507        34.9906       -31.9740        33.8712        12.2960        21.7682        36.6518       -23.4073        11.6709
         3.5679       347.5000         0.0319      -158.5765        40.0296         6.3876       -37.3865        34.8429       -39.7067       -93.6253       -32.8297
         3.5717       347.1300         0.0106        -0.2576        -6.9619      -125.7917       -44.3371      -102.3414       -53.7089        -3.1755       -53.0753
         3.5819       346.1400         0.0438        77.3163        65.7050        -5.4747        45.8489        38.9017        57.3732        46.9113        47.7287
         3.5921       345.1600         0.0397         6.9848      -132.4843       -54.0903       -59.8633      -177.1516        47.4420       -76.4982       -68.7359
         3.6022       344.1900         0.0038        -7.7487        22.5451        10.7394         8.5119        27.0213        -1.2501         8.6767        11.4826
         3.6109       343.3600         0.0103        15.9842       -17.6599        63.3210        20.5484        94.6956       -27.6758        -9.1442        19.2918
         3.6209       342.4100         0.0296       -51.4682        49.3398       -28.2210       -10.1165       115.1448      -110.9283       -17.3503        -4.3779
         3.6306       341.5000         0.0026        24.4632         8.7692        -1.5147        10.5726         0.1333        18.9179        18.3836        12.4782
         3.6337       341.2100         0.0083         3.8886         1.8262        58.6177        21.4442        48.8807        17.8376         4.3889        23.7024
         3.6412       340.5000         0.0123         3.4816       -65.4399         3.7440       -19.4047       -64.0792         4.3575        -7.1428       -22.2882
         3.6570       339.0300         0.0129        36.2270        75.5046        -2.8117        36.3067        46.4964        22.7848        48.2101        39.1638
         3.6604       338.7200         0.0220         2.2539       -54.8836       -87.7287       -46.7861      -262.1913       -33.9290       112.4594       -61.2203
         3.6668       338.1200         0.1010        84.8141        -4.8192      -120.2297       -13.4116       -26.5155       -71.8379        33.8869       -21.4888
         3.6730       337.5600         0.0226         3.3676      -100.6689         3.6857       -31.2052      -132.2749         6.7778        23.2785       -34.0728
         3.6811       336.8100         0.0320       131.4706       -27.2237        24.4027        42.8832       -34.9166        74.4077        75.6636        38.3849
         3.6873       336.2500         0.0300        59.3530        14.0141        28.8293        34.0655        62.4791        30.2057         9.0384        33.9078
         3.6885       336.1400         0.0220       -33.6376        56.2697       -71.7325       -16.3668       -68.5753       -45.6121        68.1528       -15.3449
         3.6932       335.7100         0.0080       -27.7826       -30.7130        -4.6735       -21.0564       -39.1387        11.5866       -40.2007       -22.5842
         3.6980       335.2800         0.0100         5.4176        28.4863        33.3494        22.4177        56.8021       -25.6104        42.5907        24.5941
         3.7064       334.5100         0.0088        -4.9247        29.9185        -1.2935         7.9001       -16.4868        -1.7951        44.7197         8.8126
         3.7116       334.0400         0.0163         0.0163        17.2752        64.4324        27.2413       129.9365        43.2841       -88.6393        28.1938
         3.7192       333.3700         0.0078         8.6053         1.1680       -87.3122       -25.8463       -55.5140       -37.5565         5.3838       -29.2289
         3.7312       332.2900         0.0111       -20.2705       104.3574        18.8420        34.3097       113.4722       -16.5518        20.9800        39.3001
         3.7349       331.9700         0.1044        42.2220      -116.9128      -153.6270       -76.1059      -207.0771         1.6773       -47.3546       -84.2515
         3.7372       331.7500         0.0032         2.5715        -0.0502        -1.3234         0.3993       -42.0760        -1.8040        42.9067        -0.3244
         3.7536       330.3100         0.0034        13.7780       -20.1400         7.6763         0.4381       -27.6982        16.6609        11.1519         0.0382
         3.7601       329.7400         0.0111       -11.0293       -28.7567       -71.2066       -36.9976       -96.6914         0.2672       -14.0845       -36.8363
         3.7642       329.3700         0.0240         8.4150        -1.3858        35.6163        14.2152        42.2944        24.6338       -25.5217        13.8021
         3.7726       328.6500         0.0014         9.4569        -7.7670         7.8027         3.1642        -9.0945        11.2699        15.0366         5.7374
         3.7764       328.3100         0.0389       -40.2842        -4.3136        58.3166         4.5729        22.2023        30.0980       -30.1191         7.3937
         3.7796       328.0400         0.0047        -4.6926        -3.6262        60.8625        17.5146        39.0356        41.9765       -20.2096        20.2675
         3.7894       327.1900         0.0236       -39.9952        40.4649         8.0770         2.8489       -17.1972        17.7139        12.3081         4.2749
         3.7920       326.9600         0.0303       158.0621        34.5109        -0.1916        64.1271        34.5968        71.3109        81.6063        62.5047
         3.7972       326.5200         0.0143        -7.9513       -74.2605       -23.4718       -35.2279       -88.1004       -16.6347        -8.7264       -37.8205
         3.8001       326.2600         0.0084        51.3280         0.2963       -19.5818        10.6808       -12.3284        12.5226        37.1869        12.4603
         3.8057       325.7900         0.0182       -71.0779         0.3083        22.3636       -16.1354        27.3951       -35.6936       -36.5717       -14.9567
         3.8186       324.6800         0.0169        30.0214        91.2424        -0.3689        40.2983        60.6124        19.7813        45.9905        42.1280
         3.8208       324.5000         0.0184      -113.2684        -6.2913       -65.1408       -61.5668       -16.3117      -121.4918       -51.8669       -63.2235
         3.8297       323.7400         0.0049        17.7560        -1.3433        32.7080        16.3736        28.4148        15.1476        12.3780        18.6468
         3.8309       323.6400         0.0037        -2.5819         1.3182        17.1036         5.2800        38.9353        -8.5116       -10.1275         6.7654
         3.8344       323.3500         0.0066        19.4580       -54.1503        31.4100        -1.0941       -25.1553        22.1421        -8.9381        -3.9838
         3.8449       322.4700         0.0298       149.5774       -13.3704         0.3797        45.5289        -9.3780        63.8118        77.0124        43.8154
         3.8479       322.2100         0.0139        33.3218        66.7199       -82.6163         5.8085       -38.3754        17.2661        39.3733         6.0880
         3.8520       321.8700         0.0144        91.9163        39.3199        56.9794        62.7385        72.4455        35.1771        81.9027        63.1751
         3.8545       321.6600         0.0097        23.0463       -21.8718       -40.7209       -13.1821       -73.0269        -2.0147        30.7306       -14.7703
         3.8605       321.1600         0.0030        -7.2165        -2.0219         1.3035        -2.6449        -1.3444       -11.6821         6.1598        -2.2889
         3.8690       320.4500         0.0061       -42.0163        12.2417        21.8144        -2.6534        26.5102        -8.8808       -22.5883        -1.6529
         3.8739       320.0500         0.0244         8.4062         2.1936        -0.3490         3.4169        -7.5984        18.4381        -0.8600         3.3266
         3.8790       319.6300         0.0258        -3.5374      -102.0827        -3.5624       -36.3942      -119.9090        -4.8957         8.5456       -38.7530
         3.8814       319.4300         0.0160       -11.9972         6.3717         1.4842        -1.3804        64.1828       -52.0775       -10.6678         0.4791
         3.8849       319.1500         0.0069         1.8170       -67.7465         2.6519       -21.0925       -77.3231         8.2596        -0.1474       -23.0703
         3.8875       318.9300         0.0198       -15.5565       -87.0576       -56.6775       -53.0972      -150.2829       -15.2157         0.2122       -55.0955
         3.8904       318.6900         0.0207         7.4047         3.4003      -221.0220       -70.0723      -235.0647        22.1233       -11.0476       -74.6630
         3.8980       318.0700         0.0337      -101.3182        54.9827        86.1776        13.2807       117.2046       -43.9257       -12.1812        20.3659
         3.9036       317.6200         0.0064        23.3295        -2.1541       -17.9380         1.0791       -16.9264         0.3101        17.5346         0.3061
         3.9084       317.2200         0.0457        -2.1850       -24.1683       -11.3648       -12.5727       -57.7581       -10.9903        27.2461       -13.8341
         3.9151       316.6800         0.0241        -4.6940       -22.7845        -3.2342       -10.2376       -40.6606         3.7049         3.5432       -11.1375
         3.9171       316.5200         0.0031         5.4644         5.0110       -11.7341        -0.4196       -12.5292        12.2232         2.3561         0.6834
         3.9194       316.3300         0.0044        34.6002        -8.0489        15.8333        14.1282        -5.1458        31.9747        13.6918        13.5069
         3.9228       316.0600         0.0305        37.7100       -12.2661       132.7857        52.7432       148.4041        -1.6112        26.4403        57.7444
         3.9256       315.8300         0.0358        -7.0641       -95.9632        11.4643       -30.5210       -35.3653        -7.7839       -57.7049       -33.6180
         3.9362       314.9900         0.0114        10.8675       -19.1299         9.9935         0.5770        -3.9120         1.7471         2.9051         0.2467
         3.9395       314.7200         0.0041        36.2646         9.1941        27.2823        24.2470        55.0750         5.4287        17.3383        25.9473
         3.9434       314.4100         0.0535      -162.1534         6.5535        -4.7462       -53.4487         9.1728       -80.9571       -82.2663       -51.3502
         3.9467       314.1400         0.0350       119.9163       -32.0409        -0.5232        29.1174       -51.1562        61.0078        75.4235        28.4250
         3.9499       313.8900         0.0317        93.6893       -20.5723         1.4154        24.8441       -38.6495        39.1411        65.6782        22.0566
         3.9577       313.2700         0.0039         0.3037       -49.3755       -18.8920       -22.6546       -28.0794       -19.5895       -24.6572       -24.1087
         3.9618       312.9500         0.0193       -40.4701        24.8042       -43.4623       -19.7094        18.0099       -71.3559        -3.9623       -19.1027
         3.9688       312.3900         0.0117       125.2927        -8.5182        10.1093        42.2946        -8.6462        62.5894        57.1236        37.0222
         3.9753       311.8800         0.0004         0.6254         6.5413         0.0731         2.4133        15.5331       -10.5291         0.4420         1.8153
         3.9801       311.5100         0.0093        -8.6720      -203.3662         0.4440       -70.5314      -154.7726        -2.9678       -60.7814       -72.8406
         3.9816       311.3900         0.0188        27.9783        82.2251        21.2889        43.8308        71.0337        16.7127        46.1578        44.6347
         3.9878       310.9100         0.0162         2.9081       124.4016        38.4271        55.2456       192.4687        -8.9506        -4.5826        59.6452
         3.9938       310.4400         0.0113        -1.8108        10.5371       129.4444        46.0569       116.2076        63.1073       -25.6989        51.2053
         3.9968       310.2100         0.0248         6.3233         1.0351      -117.2440       -36.6285      -217.0204        84.3821         8.6816       -41.3189
         3.9995       310.0000         0.0091        10.2484        13.1155       -51.5056        -9.3806       -62.3544         7.3439        19.0420       -11.9895
         4.0021       309.8000         0.0155         0.6852        84.8786        15.7721        33.7787       170.5201       -13.8464       -50.9118        35.2539
         4.0049       309.5800         0.0149        19.9155       -59.2132         9.7990        -9.8329       -10.6064         8.6631       -31.2336       -11.0590
         4.0094       309.2300         0.0169         9.9841        -3.1624        13.1706         6.6641       -87.2918        22.2582        85.1058         6.6907
         4.0149       308.8100         0.0145       -14.5148        47.4704       -17.3129         5.2142       -26.4035       -18.3182        66.0644         7.1142
         4.0205       308.3800         0.0403        18.2696       192.4427       242.0746       150.9290       520.7200       -33.2048        10.2623       165.9259
         4.0224       308.2400         0.0135        -0.4340       -68.5291        16.0548       -17.6361       -20.6406        -8.9426       -28.4751       -19.3528
         4.0277       307.8300         0.0009        -0.7505       -30.8304         6.9988        -8.1940       -16.4816        -6.7525        -3.2492        -8.8278
         4.0286       307.7600         0.0025         0.9204        15.3339        -8.8023         2.4840         8.7606        -0.4762         3.0116         3.7653
         4.0342       307.3300         0.0533        20.2070      -322.0445       135.6632       -55.3914      -197.3877       -53.0339        76.5462       -57.9585
         4.0352       307.2600         0.0223        -5.3538         2.5061        38.7571        11.9698        16.9210       -10.2491        32.5912        13.0877
         4.0408       306.8300         0.0200       -17.3206        21.8608       -48.7838       -14.7479        10.1711       -52.8874        -6.0477       -16.2547
         4.0494       306.1800         0.0169         5.3774       -64.1865        10.2034       -16.2019        -2.2565        -3.3787       -42.1754       -15.9368
         4.0522       305.9700         0.0104         1.4373       -21.3456        37.6171         5.9029       -11.1644        36.8197        -5.3750         6.7601
         4.0590       305.4600         0.0194         9.9788      -114.8651         6.6776       -32.7363      -134.8761        18.9761        10.2123       -35.2292
         4.0592       305.4400         0.0107       -37.3990        -2.0919         0.5431       -12.9826        14.0731       -15.4538       -37.3079       -12.8962
         4.0664       304.9000         0.0154       -17.6872        49.8317        27.5679        19.9041        66.9661         5.0054        -7.8974        21.3580
         4.0684       304.7500         0.0352        37.5678        -3.5782        17.9756        17.3218        25.4719        10.1150        17.0358        17.5409
         4.0746       304.2900         0.0129        -5.9762        90.2526        -5.6052        26.2237        78.9348        -1.1846        10.4662        29.4055
         4.0750       304.2500         0.0216       -62.4365        -5.6777       154.5314        28.8057       139.8450        -3.3321       -36.7226        33.2634
         4.0823       303.7100         0.0006         2.3251         0.2309        -3.5609        -0.3350       -18.9558        16.2434         1.3243        -0.4627
         4.0865       303.4000         0.0050       -13.5420       -58.2586        -2.9236       -24.9081       -62.8466        -3.7045        -7.8954       -24.8155
         4.0901       303.1300         0.0116        10.4055         2.7013        -4.5964         2.8368         1.0713         5.3512        -1.7768         1.5486
         4.0946       302.8000         0.0194        58.2467       -28.0357         1.1781        10.4630       -24.5396        32.8491        12.6903         6.9999
         4.0955       302.7300         0.0252       -78.4629       -49.6884        32.4742       -31.8924        -2.2745       -58.9518       -33.6187       -31.6150
         4.0985       302.5100         0.0339       -17.6193       -29.9190        -2.1190       -16.5524      -148.5543        62.7809        34.2558       -17.1726
         4.1014       302.3000         0.0205        -8.8441       -51.6783       -28.2955       -29.6060      -130.7697         3.3512        33.8258       -31.1976
         4.1054       302.0000         0.0227       -33.2276        14.9287        31.6945         4.4652        31.5516       -26.1088         8.4829         4.6419
         4.1083       301.7900         0.0221         1.2152        32.2991       115.3638        49.6260       176.7028       -32.0320        17.1900        53.9536
         4.1126       301.4700         0.0116        18.1660         5.7784         6.8058        10.2500       -14.3586        27.4360        18.5455        10.5410
         4.1181       301.0700         0.0044        -0.3833       -57.5350         6.9012       -17.0057        -7.9248         3.2141       -35.3465       -13.3524
         4.1203       300.9100         0.0235        79.3274        18.4501         3.0236        33.6004        32.0281        35.6490        32.9604        33.5458
         4.1237       300.6600         0.0438        42.7605        45.5208        29.1021        39.1278        82.1138        14.4883        19.0167        38.5396
         4.1264       300.4700         0.0112         8.3222       -17.6938       -13.6222        -7.6646       -88.6549        51.9936        15.0025        -7.2196
         4.1273       300.4000         0.0053        -1.9323        19.2291        -3.4791         4.6059       -44.9550        57.6395        -2.4076         3.4256
         4.1346       299.8700         0.0078        21.7943        11.6057        23.7201        19.0400        56.5001       -11.7570        17.9725        20.9052
         4.1358       299.7800         0.0181        21.9837       -42.5766        41.3732         6.9268        21.0903       -16.0704        14.5402         6.5200
         4.1408       299.4200         0.0148       -20.2019        50.3666       101.5224        43.8957       146.3599       -18.7506         9.2874        45.6322
         4.1426       299.2900         0.0065         1.6090       -44.7309        49.3387         2.0723         0.4162        24.3812       -14.4571         3.4468
         4.1460       299.0500         0.0258        14.9276       -66.3509       124.7154        24.4307        44.4447        73.3829       -35.7944        27.3444
         4.1510       298.6800         0.0029        19.2112        37.9617        -9.5651        15.8692         6.7323        25.2558        17.0912        16.3598
         4.1555       298.3600         0.0133       -38.5720       -24.5434       117.9367        18.2738        92.6495        -8.5201       -10.9460        24.3945
         4.1591       298.1000         0.0121        -0.8497       -51.2536        55.4663         1.1210       -25.5006         6.4271        26.0295         2.3187
         4.1648       297.7000         0.0011        14.4057        -0.4086         2.3460         5.4477         0.7646         6.4866         6.3356         4.5289
         4.1653       297.6600         0.0224        21.2579        34.0189        -2.4552        17.6072        37.1545        18.9960        -0.8189        18.4439
         4.1705       297.2900         0.0268       -61.9606       101.0480        -3.2715        11.9386        85.0304       -31.7945        -2.1907        17.0150
         4.1733       297.0900         0.0175        42.4888         7.0048       -35.1427         4.7836        18.0018       -35.8613        28.8429         3.6611
         4.1757       296.9200         0.0144       -60.0019       -15.1394       -27.1756       -34.1057       -40.2850       -24.2143       -40.4115       -34.9703
         4.1784       296.7300         0.0120        21.0164        13.5470        -3.4197        10.3812         0.7726        11.0340        14.1002         8.6356
         4.1845       296.3000         0.0075         3.2217       -11.4474        24.9950         5.5898         4.2085        23.5844       -10.6396         5.7178
         4.1857       296.2100         0.0105       -25.1229        18.0527        -0.9186        -2.6629        15.7469        -7.9508       -10.5820        -0.9286
         4.1889       295.9900         0.0264        -0.2162       132.0523        14.9313        48.9224       174.7473         0.3769       -14.1212        53.6677
         4.1928       295.7100         0.0266       -18.7376        10.4105        27.3875         6.3535        25.6194       -17.3759        15.4827         7.9087
         4.1950       295.5500         0.0099        -2.8753        36.9718         6.9882        13.6949        57.5394         0.1087       -15.5946        14.0178
         4.1978       295.3600         0.0077         3.2927      -130.1807         3.1214       -41.2555       -70.4625         4.6443       -62.4905       -42.7696
         4.1995       295.2400         0.0243       -10.7274       -76.7800       -20.6346       -36.0473       -60.0094       -46.9757        -7.6482       -38.2111
         4.2042       294.9100         0.0122        11.2522        -5.8463        24.2686         9.8915        -4.5549        23.3423         9.5619         9.4498
         4.2065       294.7400         0.0173        -8.1343       -23.7332       -51.8011       -27.8895        28.0739      -106.1015       -10.1922       -29.4066
         4.2112       294.4100         0.0279       139.8725       -70.9211       -30.9126        12.6796       -88.9786        62.5500        53.7519         9.1078
         4.2121       294.3500         0.0077        -0.3299        -2.0043       -11.5019        -4.6120        47.8939       -36.6491       -26.7257        -5.1603
         4.2180       293.9400         0.0434        25.8481       -94.5226       -44.1889       -37.6211      -171.5038        40.2198        11.7318       -39.8507
         4.2195       293.8300         0.0335        30.5222        97.7296         3.9744        44.0754        35.9762       -20.9607       124.9472        46.6542
         4.2244       293.5000         0.0378        -3.8824         1.3771       -15.7523        -6.0859       -12.4767       -17.2668        10.6863        -6.3524
         4.2262       293.3700         0.0330         6.1511       101.5309       -47.3187        20.1211       -42.3381       -14.6780       121.9675        21.6505
         4.2294       293.1500         0.0136         3.3862       129.7676       -34.4744        32.8932       162.1048       -47.0400        -0.5641        38.1669
         4.2322       292.9600         0.0326       -43.7748         4.5705       -56.7451       -31.9832        -9.5325       -31.0612       -56.1106       -32.2347
         4.2336       292.8500         0.0304       -51.2764        36.1329       -15.6167       -10.2534        55.5934       -20.6175       -56.9781        -7.3341
         4.2395       292.4500         0.0323       -42.4352        46.9836        80.5282        28.3588        75.0702        49.2952       -32.0210        30.7815
         4.2418       292.2900         0.0095         2.5336       -61.7536      -123.3525       -60.8575      -150.1707       -31.3583        -8.4150       -63.3147
         4.2428       292.2200         0.0115         8.6126       -11.5880        13.2214         3.4153        -0.1941        15.8470        -9.8599         1.9310
         4.2466       291.9600         0.0180        -5.5585       -85.6415        -2.7914       -31.3305       -94.0623        -0.2951        -0.8575       -31.7383
         4.2512       291.6400         0.0023         4.6052       -44.1843         0.2653       -13.1046       -16.5369        -0.2522       -25.6611       -14.1500
         4.2539       291.4600         0.0020         2.9660         7.3124        -8.0626         0.7386        -2.9960         4.5464         1.8253         1.1252
         4.2550       291.3800         0.0118       -43.7237        42.3176       -11.9584        -4.4548        24.6327       -28.7849        -5.5941        -3.2488
         4.2574       291.2200         0.0110         0.5412       -27.5221        -1.4705        -9.4838         0.4837         3.6656       -34.3878       -10.0795
         4.2644       290.7400         0.0240       -50.4542       -35.6896        10.1823       -25.3205        -4.8900       -24.0093       -42.2642       -23.7211
         4.2661       290.6300         0.0196        -3.7806        -8.3054        47.1688        11.6943        60.8650       -29.9349         7.1272        12.6858
         4.2674       290.5400         0.0238        49.9923       167.0212       -16.8797        66.7113        89.0014        33.0390        83.1286        68.3897
         4.2688       290.4400         0.0060       -12.6277         1.0061        -2.2186        -4.6134       -43.6478        10.7405        18.8384        -4.6896
         4.2716       290.2500         0.0048         3.6160       -10.7922        17.9610         3.5949        -8.6815        23.2889        -6.3082         2.7664
         4.2756       289.9800         0.0461        68.7586         7.8660        22.5146        33.0464        61.4467         0.1903        36.3101        32.6490
         4.2817       289.5700         0.0024         4.3422         9.6325        -7.9839         1.9970        -5.4463         0.0838        14.3340         2.9905
         4.2854       289.3200         0.0103        29.0467        10.4503        55.0323        31.5098        44.8102        40.9270        10.4728        32.0700
         4.2893       289.0500         0.0013         0.1050        -2.3581         6.4698         1.4056        18.4545       -18.7230         4.9184         1.5500
         4.2909       288.9500         0.0349        -9.5474        91.9640       -55.3245         9.0307        30.5891       -32.2864        27.7495         8.6841
         4.2933       288.7900         0.0169        -9.4141        -9.8890         4.1499        -5.0511         9.2161        -4.8497       -19.9268        -5.1868
         4.2950       288.6700         0.0215        28.3213        55.2261       177.6257        87.0577       268.1007       -41.8239        45.2800        90.5189
         4.2978       288.4800         0.0126         6.6730       -16.8409      -109.2811       -39.8163       -80.9827       -29.5039       -17.8295       -42.7720
         4.3022       288.1900         0.0051        -5.6560       -20.4770        -3.5817        -9.9049       -23.8549        -3.6046        -0.4260        -9.2951
         4.3066       287.8900         0.0024        -2.4372        32.1625        50.7187        26.8147        56.5410        19.0738        14.4723        30.0290
         4.3103       287.6400         0.0022        -0.6658         1.9707        -8.1198        -2.2716       -15.2495        -3.7534        13.2186        -1.9281
         4.3147       287.3500         0.0179        -5.4581        21.3031        26.9810        14.2753        36.7376        -1.8283        10.3863        15.0985
         4.3154       287.3000         0.0131        28.5257       -31.4135        23.2696         6.7940         3.8210         6.4020         6.3628         5.5286
         4.3188       287.0800         0.0060        19.2397        -6.7792        18.7349        10.3985        10.9824        16.3853         4.8751        10.7476
         4.3212       286.9200         0.0256       -72.0268         7.0711        -0.3134       -21.7564        20.2014       -33.0815       -46.2008       -19.6936
         4.3242       286.7200         0.0103       -25.4820        19.9761        -5.1508        -3.5522        31.6575        -4.4904       -33.9058        -2.2462
         4.3273       286.5200         0.0057        -1.2844        37.6024         2.9075        13.0752        48.3639         2.0834       -11.8655        12.8606
         4.3279       286.4700         0.0155       -36.8681       -78.8333        37.3655       -26.1120       -18.9336       -31.8610       -27.7278       -26.1741
         4.3307       286.2900         0.0147       -15.3754       -36.1839        50.0925        -0.4889        -8.8634        34.6895       -24.8244         0.3339
         4.3330       286.1400         0.0235       -12.3341       -93.8420        34.5261       -23.8833        26.2169       -69.7263       -27.0212       -23.5102
         4.3357       285.9600         0.0422       -33.8465        53.3283       -55.8457       -12.1213        57.3799       -46.9547       -36.9415        -8.8388
         4.3399       285.6800         0.0116        -8.2681        22.8992        -5.5680         3.0210        -0.5486         9.4496         6.6502         5.1837
         4.3421       285.5400         0.0177         5.0639       -60.3450       -31.6971       -28.9927       -59.7355       -46.3616         6.6724       -33.1416
         4.3445       285.3800         0.0192         9.1216        -4.8696       -27.8073        -7.8518        43.9093       -52.5918       -19.7508        -9.4778
         4.3466       285.2400         0.0230        48.6951       100.9979        19.2626        56.3185        87.5120        28.6545        53.6165        56.5943
         4.3486       285.1100         0.0258        11.1458        15.7599       -35.0969        -2.7304       -17.7986        -6.4290        16.8678        -2.4533
         4.3519       284.9000         0.0106        -1.7605        86.3696        -5.8950        26.2380        83.6276        -4.4283         3.2520        27.4837
         4.3529       284.8300         0.0044        28.9376         2.0875        18.0933        16.3728         5.6754        23.2609        16.8997        15.2787
         4.3593       284.4200         0.0010        24.5729         0.3535        -0.0991         8.2758         3.1625        11.0423         9.8520         8.0189
         4.3608       284.3200         0.0024         8.9759       -11.3240        14.0513         3.9011        13.8618        -0.9957        -1.4371         3.8097
         4.3632       284.1600         0.0035        -4.2340         3.6932       -24.3206        -8.2871       -22.3384        -2.9704         2.6349        -7.5580
         4.3659       283.9800         0.0044        18.7990       -19.5394        50.9911        16.7502       -19.5270        44.2131        18.8253        14.5038
         4.3675       283.8800         0.0411      -148.8007        52.4466        43.2903       -17.6879        97.0574       -51.2998       -83.9726       -12.7383
         4.3703       283.7000         0.0175        42.6747       -27.4355        -0.3920         4.9491       -18.2420        15.6180        13.1988         3.5249
         4.3726       283.5500         0.0016        -5.5296        -9.1102         8.3839        -2.0853        -8.6260       -11.9539        12.4189        -2.7204
         4.3753       283.3800         0.0066        -2.1981       -26.4452        48.2736         6.5434        17.7207        30.8794       -22.0887         8.8371
         4.3793       283.1200         0.0446        -8.8799       -38.6071         1.5614       -15.3085       -20.0424         5.3727       -34.1919       -16.2872
         4.3806       283.0300         0.0313         8.6711         6.1298       -41.2497        -8.8163       -25.8565       -23.8265        19.6337       -10.0164
         4.3832       282.8600         0.1087       -93.7262        11.0369       162.1007        26.4705       117.5642        44.6782       -64.8322        32.4701
         4.3848       282.7600         0.0369      -100.2252        11.9732       -55.4937       -47.9153        -8.1356       -89.2944       -44.1762       -47.2021
         4.3852       282.7300         0.0138        45.3603        -4.1836        53.3935        31.5234        47.0631        55.1962        -8.8470        31.1374
         4.3893       282.4700         0.0275        21.9756       -11.1790        28.1649        12.9871        57.4380       -10.9554        -7.6941        12.9295
         4.3948       282.1200         0.0045        12.0658        11.5547       -45.9341        -7.4378       -30.5926        -1.6907        13.1028        -6.3935
         4.3975       281.9400         0.0097        -4.1464       -48.8001        26.2879        -8.8862        15.5462        15.5273       -60.6764        -9.8677
         4.3992       281.8400         0.0284         8.2367       -17.7621       -91.7503       -33.7586       -33.9216       -93.1300        22.1071       -34.9815
         4.4027       281.6100         0.0114       -45.1876       -28.4505        -5.2546       -26.2976       -55.0538       -19.5164        -1.4546       -25.3416
         4.4046       281.4900         0.0112        -2.4766       -15.9556       106.9681        29.5120        42.2636        51.2001        -1.0280        30.8119
         4.4061       281.3900         0.0263       -54.8736         7.4508        36.2524        -3.7235        34.1677       -41.9108        -0.4628        -2.7353
         4.4091       281.2000         0.0219        36.9388        -2.5687         0.0368        11.4690        -1.2358        23.0633         9.1022        10.3099
         4.4098       281.1600         0.0069        33.0778        11.7277         1.2791        15.3615        12.1620        12.2020        34.2115        19.5252
         4.4138       280.9000         0.0063        74.1140        32.8946         0.2155        35.7414        18.1087        31.6418        48.8507        32.8671
         4.4147       280.8500         0.0166        -3.1127         4.3405       -18.6370        -5.8031        81.8906       -76.6798       -23.4346        -6.0746
         4.4183       280.6100         0.0167       -14.8372        20.5935        15.3980         7.0514         5.7122         7.5918        17.7161        10.3400
         4.4215       280.4100         0.0013        -0.1814       -16.4505        -3.8410        -6.8243        -8.7141       -12.6994         1.1602        -6.7511
         4.4218       280.3900         0.0084       -16.5381        19.8654       -18.2063        -4.9597        16.5023       -25.9359        -1.6317        -3.6884
         4.4253       280.1700         0.0094        -4.4846       -95.9675        25.4313       -25.0069       -89.9438        21.1042        -3.4629       -24.1008
         4.4295       279.9000         0.0158       -46.9194        -4.6719       -19.5699       -23.7204       -27.4078       -22.8304       -19.9261       -23.3881
         4.4314       279.7800         0.0270         8.4778       -60.0714       -50.0298       -33.8744      -130.0710       -19.6002        40.2525       -36.4729
         4.4330       279.6900         0.0276       138.1996        -8.5944        12.2582        47.2878        18.8882        50.8284        71.5111        47.0759
         4.4386       279.3300         0.0448       -39.0167       -50.9466        -0.9527       -30.3054       -54.0267        -6.9932       -29.0252       -30.0150
         4.4406       279.2100         0.0034        13.2334       -12.5131         4.1139         1.6114        -9.2890        12.5534        -3.6096        -0.1151
         4.4418       279.1300         0.0156       -21.7949         2.6611        -0.2743        -6.4694       -28.4212        31.2718       -20.7790        -5.9762
         4.4427       279.0700         0.0197        35.4863        40.0140        14.9323        30.1442         5.2031        69.4542        16.7799        30.4791
         4.4453       278.9100         0.0278        43.9154         7.0318       -62.2120        -3.7549       -68.6820         0.2328        47.5444        -6.9683
         4.4470       278.8000         0.0305         9.0026        81.0550       -12.0478        26.0033        47.4538       -22.5341        54.3313        26.4170
         4.4513       278.5300         0.0115       -12.1418      -109.6556         4.7284       -39.0230       -57.1288       -12.2203       -54.0434       -41.1308
         4.4527       278.4400         0.0152       -60.2532         7.7768        -0.5667       -17.6810        15.2238        -7.9214       -51.7382       -14.8119
         4.4535       278.4000         0.0068        23.1613        24.2143         7.9584        18.4447        24.4691        11.5795        18.7672        18.2720
         4.4574       278.1600         0.0022        -4.9073        37.7279         3.5346        12.1184        18.0866        -2.4844        19.0479        11.5500
         4.4625       277.8400         0.0018        14.7254         6.0017         4.8812         8.5361        11.6129         8.5080         5.2474         8.4561
         4.4630       277.8100         0.0225         1.3786        22.4814        -1.3907         7.4897         4.9193        -2.3256        19.0464         7.2133
         4.4660       277.6200         0.0202        18.2814       -18.7757       -31.5927       -10.6957       -22.6989       -18.0434         6.8080       -11.3115
         4.4679       277.5000         0.0011        14.3067        -0.8440       -10.2902         1.0575       -17.6520        10.9606         0.1563        -2.1784
         4.4688       277.4500         0.0009        -1.1952        -7.5292        -9.5855        -6.1033       -35.7894         4.0472        11.1255        -6.8723
         4.4735       277.1500         0.0159         0.0164        33.7145       -18.2046         5.1754       -19.6308        18.9068        15.4496         4.9085
         4.4752       277.0500         0.0159       -12.2352         8.0403        47.5156        14.4402        27.8646        18.3540         0.8596        15.6928
         4.4778       276.8900         0.0182         7.6309        30.4871       -22.4390         5.2263       -10.0219        -4.1212        36.3315         7.3961
         4.4794       276.7900         0.0030         4.8667        29.5882         6.7081        13.7210        33.4128         6.5401         5.5168        15.1566
         4.4802       276.7400         0.0292        94.9464         2.9602        -4.7884        31.0394       -25.6771        47.7762        62.2586        28.1192
         4.4836       276.5300         0.0212         5.7456        -0.5826       -65.0562       -19.9644       -76.1733       -15.7548        26.9795       -21.6496
         4.4857       276.4000         0.0089       -18.1979       -45.7758       -13.3836       -25.7858       -16.4714       -15.5755       -44.3592       -25.4687
         4.4862       276.3700         0.0730       -58.2983       -29.0216       -10.6084       -32.6428       -31.8654       -31.7348       -31.0127       -31.5376
         4.4878       276.2700         0.0218        31.5805       -34.8294         2.5894        -0.2198         6.7650        16.7229       -27.8461        -1.4527
         4.4957       275.7800         0.0241        18.9978        -1.0883        69.1360        29.0152        78.9444        -5.4874        16.8327        30.0966
         4.4973       275.6900         0.0115        28.0798        -3.0915        57.8488        27.6124        61.7875        11.6460        12.2130        28.5488
         4.4996       275.5500         0.0469       -20.3540         3.5207        -9.2891        -8.7075       -28.3911        25.7675       -23.7725        -8.7987
         4.5024       275.3700         0.0083        -9.1300        -7.5876       -15.3593       -10.6923        -7.7017       -10.9841       -14.1856       -10.9571
         4.5037       275.3000         0.0070        21.4186        69.2315         0.7287        30.4596       100.7864         9.0573       -12.8691        32.3249
         4.5058       275.1700         0.0284        29.1884       -31.0616         1.8414        -0.0106       -31.7094        30.5042        -2.7847        -1.3300
         4.5087       274.9900         0.0085         0.1801        11.8949        57.0702        23.0484        57.2263        13.9399         2.6282        24.5982
         4.5100       274.9100         0.0324        46.9562        30.4567       -42.1165        11.7654       -36.6426       -19.6074        83.5480         9.0993
         4.5123       274.7700         0.0452        15.9581        -8.0377        45.0004        17.6403         0.9579        20.0728        34.9266        18.6524
         4.5154       274.5800         0.0017        -0.5338        -5.3091       -11.7870        -5.8767        -1.6199        -5.2114       -10.4361        -5.7558
         4.5186       274.3900         0.0034         8.8919       -23.7036       -70.5972       -28.4696       -64.5995       -21.9453         1.7085       -28.2788
         4.5206       274.2600         0.0034        -1.4117        17.4129       -11.8220         1.3931         9.6578       -21.6367        14.4531         0.8247
         4.5240       274.0600         0.0021         3.0210        37.5916        18.1588        19.5905        15.0640        16.3730        37.5793        23.0054
         4.5272       273.8600         0.0106       -53.2720        -0.3684         1.0136       -17.5423         5.7105       -21.1521       -32.6540       -16.0319
         4.5297       273.7100         0.0145       -80.4490        -5.0173         4.2885       -27.0592         7.7523       -25.8784       -56.1441       -24.7567
         4.5313       273.6100         0.0075        -2.3965         3.8614        46.3462        15.9370        85.7596       -28.4302        -2.2362        18.3644
         4.5333       273.4900         0.0300        27.9941        17.4636        54.5308        33.3295       102.6101        10.5229       -12.4992        33.5446
         4.5358       273.3400         0.0053         0.8544       -18.3588         8.0829        -3.1405        18.4671       -33.2738         2.7227        -4.0280
         4.5384       273.1900         0.0122        27.2581        -3.3620         1.6523         8.5161         5.0113        28.0439        -6.1772         8.9593
         4.5399       273.1000         0.0187       -45.7936       -17.0401        -1.5863       -21.4733       -15.6474       -20.5229       -25.1184       -20.4296
         4.5413       273.0100         0.0098         5.0030        -1.5314         1.2744         1.5820         3.2502         3.7382        -1.0970         1.9638
         4.5443       272.8400         0.0059        -7.1684        19.7343        -5.0919         2.4913        15.8555        -0.9422        -3.0671         3.9487
         4.5478       272.6200         0.0047        -0.0654       -42.4787         6.5800       -11.9880       -42.7961         7.8445        -1.4861       -12.1459
         4.5492       272.5400         0.0161       -20.2355        -6.9812       -28.6537       -18.6234       -27.4024       -25.7688        -1.2437       -18.1383
         4.5524       272.3500         0.0169        14.7962       -59.1507        13.9149       -10.1466       -26.9016        47.3465       -52.7572       -10.7708
         4.5551       272.1900         0.0237        -8.2017        24.4095       -11.0980         1.7033        40.2362       -64.0464        31.7205         2.6368
         4.5572       272.0600         0.0448        95.2503         0.3279       -61.3317        11.4155       -28.5937        -6.6907        57.1725         7.2960
         4.5595       271.9200         0.0248        73.1374        -2.7040       -34.9259        11.8358       -24.8967        -6.6557        58.6158         9.0211
         4.5614       271.8100         0.0081        25.1566        22.1355        -9.4617        12.6101         4.8254         4.5948        22.0316        10.4839
         4.5655       271.5700         0.0112        37.4980        20.7736       -12.9673        15.1015         1.1261        19.8741        19.7100        13.5701
         4.5657       271.5600         0.0198       -79.8856       -33.1399        62.4149       -16.8702       -18.8755         9.8446       -31.5353       -13.5221
         4.5695       271.3300         0.0146       -28.2916       -15.3187         7.5212       -12.0297        -9.1062       -18.8760        -4.8342       -10.9388
         4.5713       271.2200         0.0041        -0.1216        -0.4937       -25.6440        -8.7531       -37.6389        -7.6202        15.7418        -9.8391
         4.5726       271.1400         0.0423       -58.9552       -29.1354       126.5986        12.8360        58.6792        27.5818       -42.1918        14.6897
         4.5761       270.9400         0.0022         4.2007        10.8160         5.0370         6.6846         2.4132        -3.0804        21.8002         7.0443
         4.5783       270.8100         0.0026        18.6009       -24.6153         2.3885        -1.2086       -20.7884        11.2279         9.2007        -0.1199
         4.5800       270.7100         0.0096        34.7729       -38.8690        25.3226         7.0755        -5.3618        21.7039         0.3258         5.5560
