             eV             nm  Absorbance(f)     XX(length)     YY(length)     ZZ(length)      R(length)   XX(velocity)   YY(velocity)   ZZ(velocity)    R(velocity)
         0.2178      5692.5600         0.0013       -83.3703        -0.2633       -46.0611       -43.2316       -31.6341       -86.1331       -51.3870       -56.3847
         0.2675      4635.3600         0.0001        11.7074        -1.7967         1.7691         3.8933         1.7619        10.0109         7.0008         6.2579
         0.4628      2679.0000         0.0010        71.9418       -29.0631         9.2779        17.3855         7.8042        54.1819        44.1674        35.3845
         0.6018      2060.2000         0.0008        19.3253        -1.0948        23.7061        13.9789        24.2943        33.8071        16.0686        24.7233
         0.6228      1990.6200         0.0000        -5.8756         7.2488         1.8426         1.0719         5.3387        -0.2060         6.7373         3.9567
         0.6366      1947.5000         0.0026         3.2184         3.6858         0.7272         2.5438         3.2596        -3.1439         9.3971         3.1709
         0.6670      1858.9500         0.0027        -9.2869         5.3446         6.6021         0.8866        15.0769         7.1723        -2.5518         6.5658
         0.6870      1804.7800         0.0014       168.6656         2.0330         1.3022        57.3336         0.0365        95.2797        93.3278        62.8813
         0.7432      1668.2900         0.0066       838.5083        -7.5981       -20.7885       270.0406       -20.6395       539.2328       541.6841       353.4258
         0.7664      1617.8000         0.0002         6.9955       -40.4619        23.0376        -3.4763       -14.7857         1.0532       -57.3536       -23.6954
         0.8325      1489.2400         0.0010         2.9656       -29.1675        -1.2973        -9.1664       -26.3858         0.7090       -25.1164       -16.9311
         0.8490      1460.3500         0.0036      -474.3292        15.9639        -3.0497      -153.8050         8.0839      -290.9815      -291.1190      -191.3388
         0.8848      1401.2300         0.0002       -69.1537         9.4911        10.1320       -16.5102        14.8731       -52.3232       -60.7624       -32.7375
         0.9313      1331.3500         0.0009        77.1931        -1.5137        10.0120        28.5638         3.4101        48.1991        48.2934        33.3008
         0.9430      1314.8300         0.0099       209.6882         4.0187        -5.6752        69.3439         1.9082       127.0730       144.3644        91.1152
         0.9652      1284.5100         0.0005       -15.9463        14.9031         6.1767         1.7112         5.2351       -23.5900        -0.0262        -6.1270
         0.9673      1281.7400         0.0013      -140.9315        -6.9084         5.6912       -47.3829         1.7721       -95.2749       -99.2764       -64.2597
         0.9954      1245.5300         0.0026      -125.0151         7.0043        13.6789       -34.7773        12.0511       -68.4403       -68.2450       -41.5447
         0.9996      1240.2800         0.0031       -50.2488        -1.1618        -0.6422       -17.3510        -4.6565       -39.2634       -24.3945       -22.7715
         1.0264      1207.9800         0.0004        48.3327        27.8053        -0.0579        25.3600        21.6974        40.6063        50.1198        37.4745
         1.0380      1194.5000         0.0020       -52.3366       -23.9955       -27.7289       -34.6870       -40.8315       -40.3000       -59.4715       -46.8677
         1.0598      1169.8300         0.0015        67.6435         6.1366         2.4238        25.4013         0.7813        44.2440        34.2553        26.4269
         1.0718      1156.7400         0.0100        46.0824        16.9052        -2.9744        20.0044        12.6677        11.7035        49.5078        24.6263
         1.1026      1124.4600         0.0004       -16.3073       -71.4370       -25.3124       -37.6855       -39.1821       -19.8165       -39.7498       -32.9161
         1.1247      1102.3500         0.0014        68.7784        -0.7061        -0.3663        22.5687        -0.0577        36.7059        30.8401        22.4961
         1.1453      1082.5100         0.0019       -83.9599         9.4933         0.3503       -24.7054         1.0867       -51.7767       -62.4250       -37.7050
         1.1682      1061.3200         0.0061      -224.4753        12.4703       -13.2685       -75.0912        -8.0678      -143.5579      -100.4411       -84.0223
         1.1903      1041.6100         0.0059      -143.2497       -15.6299        21.3876       -45.8307        -4.3632       -52.9543       -88.2462       -48.5212
         1.2168      1018.9800         0.0011      -121.5382       -32.8370         1.3402       -51.0117       -15.6391       -77.3650       -85.5359       -59.5134
         1.2529       989.6000         0.0011       -25.6179        -0.0604        42.8568         5.7262        17.7089        11.6990       -24.1273         1.7602
         1.2657       979.6000         0.0011        28.0026        27.0874       -13.8123        13.7592         5.0640        10.8957        29.9099        15.2898
         1.2796       968.9000         0.0002        -3.6362        -0.7762        -0.4521        -1.6215        -0.3847        -3.1688        -1.3409        -1.6315
         1.3355       928.4000         0.0007       -14.0653        -2.3905        -8.0426        -8.1661       -10.1162       -16.0249        -9.6697       -11.9370
         1.3666       907.2200         0.0008        -7.7758       -46.0361       -67.7487       -40.5202       -76.3781       -34.5240       -30.9836       -47.2952
         1.3898       892.1200         0.0006         6.2630       -33.0345       -34.6083       -20.4599       -42.1877       -14.7546        -7.8309       -21.5911
         1.3943       889.2300         0.0008        46.0859         4.1568       -27.2584         7.6614        -8.9446        14.7464        29.1168        11.6395
         1.4071       881.1500         0.0007         1.8363       -13.6103        -2.7508        -4.8416       -11.7390         0.6773        -3.0788        -4.7135
         1.4293       867.4400         0.0009        -9.9896        49.1734         0.0845        13.0894        40.2161        -5.7104        20.9086        18.4714
         1.4353       863.8300         0.0002         4.2858       -50.7780       -30.8355       -25.7759       -59.1604       -13.8215       -27.8615       -33.6145
         1.4654       846.0700         0.0009        63.1450       -47.7018        30.9878        15.4770        -4.2615        32.5959        -9.2201         6.3715
         1.4704       843.2200         0.0016        43.2891        13.8586       -14.1656        14.3273        -5.1255         7.7909        28.3764        10.3472
         1.5041       824.3200         0.0002         0.4739        -1.2809       -15.0209        -5.2759       -10.9880        -7.0911        -0.2272        -6.1021
         1.5134       819.2200         0.0012       -24.6796       -11.8805         2.6867       -11.2911        -1.0816       -10.9863       -19.4258       -10.4979
         1.5203       815.5100         0.0021        29.5340        -4.9386         4.1729         9.5894        -3.0719        22.2421         5.0115         8.0606
         1.5534       798.1700         0.0003         6.1835         0.7211         0.4268         2.4438         0.9316         4.6872         4.2659         3.2949
         1.6154       767.5100         0.0016         4.9677        21.3978         2.2503         9.5386        18.7126        -0.7007        19.7988        12.6036
         1.6442       754.0700         0.0112        36.9768        24.1431      -130.8477       -23.2426       -97.7364       -64.8719        27.0354       -45.1910
         1.6668       743.8400         0.0030       125.9068        -2.5872         7.3767        43.5655        -0.0444        76.4604        60.3290        45.5817
         1.6863       735.2600         0.0132      -234.9731        -7.1329       -10.4684       -84.1915       -16.7015      -144.8794      -117.1411       -92.9073
         1.6966       730.7700         0.0028        94.8286        -9.4235       -69.3684         5.3456       -58.3693       -10.1588        46.7768        -7.2504
         1.7279       717.5600         0.0025        46.1496        17.3807         2.7975        22.1093        12.5416        27.9228        30.4884        23.6509
         1.7361       714.1700         0.0082       214.8790       -22.5401       -72.9613        39.7926       -43.9688        98.1329        98.4452        50.8698
         1.7464       709.9300         0.0017       -37.7032       -27.9460        75.6164         3.3224        34.3946        19.6259       -30.6041         7.8054
         1.7653       702.3500         0.0079       -57.5553         9.6372         0.6314       -15.7623        -0.3928       -34.4462       -19.9660       -18.2683
         1.7795       696.7300         0.0004       -13.0436       -61.4358         0.4945       -24.6616       -47.0612        -8.3131       -36.6955       -30.6899
         1.8014       688.2800         0.0026       -12.4731       185.4260         5.4487        59.4672       131.8041        -2.6148        92.0092        73.7328
         1.8246       679.5200         0.0336      -100.7207       -44.5741        -4.8518       -50.0488       -35.8858       -62.8130       -60.6966       -53.1318
         1.8424       672.9500         0.0036        -1.4037       -49.6514       -60.3522       -37.1358       -54.8751       -33.1789       -28.5843       -38.8794
         1.9013       652.1000         0.0010        -5.6167         6.0772         4.5044         1.6550        17.0533        -0.8666       -10.0727         2.0380
         1.9179       646.4700         0.0039        -7.4934        20.1037       124.6452        45.7518        97.7385        46.8426        11.2448        51.9420
         1.9405       638.9200         0.0022        13.9141       -63.3571        48.6553        -0.2626       -13.3605        24.3443       -23.3728        -4.1296
         1.9516       635.3000         0.0046        52.4052         0.0876        27.6249        26.7059        14.0790        39.9406        33.4322        29.1506
         1.9603       632.4700         0.0007        38.0983       -14.5106        63.0789        28.8889        26.3323        46.9852        17.4108        30.2428
         1.9992       620.1600         0.0103       -70.9043       -14.7285         1.1956       -28.1457       -29.2087       -47.2215       -51.7294       -42.7198
         2.0144       615.5000         0.0006        25.7328        17.8024        79.1577        40.8976        42.4634        35.6505        21.0940        33.0693
         2.0392       608.0100         0.0008         6.5710        11.1513       -12.0695         1.8843         2.3603        -2.8079        11.7655         3.7726
         2.0444       606.4700         0.0019       -10.3416       -31.2212       -15.0547       -18.8725       -32.6896       -12.0632       -23.3908       -22.7145
         2.0547       603.4200         0.0084       -83.7107         0.2636        75.1262        -2.7736        45.3719         7.0299       -62.4039        -3.3340
         2.0674       599.7100         0.0775       501.8660       -54.9788        29.9709       158.9527        -9.7026       290.6873       213.1890       164.7246
         2.0752       597.4500         0.0078       -16.8057         4.1032        28.4578         5.2518        15.3240         4.4555        -3.8772         5.3008
         2.0914       592.8200         0.0101      -119.2284      -179.5163       -25.7593      -108.1680      -108.2022       -59.5607      -137.3415      -101.7015
         2.0999       590.4400         0.0364       261.6090       -30.9113        43.7273        91.4750         3.4800       155.6048       109.8475        89.6441
         2.1300       582.0800         0.0170       232.8188       -97.3552       -21.6933        37.9235       -76.8657        77.5412        97.9712        32.8822
         2.1437       578.3500         0.0056        -4.0262        60.7771       -63.0589        -2.1027        -4.1520       -25.3581        31.5579         0.6826
         2.1478       577.2500         0.0560       -72.4395       -19.8705      -133.5023       -75.2708       -94.1812      -105.6714       -28.8946       -76.2491
         2.1728       570.6200         0.0081       -10.8359        18.4307         8.1467         5.2472        12.7114       -11.2890        12.4255         4.6159
         2.1854       567.3200         0.0054      -101.5292        -8.4392        17.1335       -30.9450        13.1749       -38.6129       -66.7596       -30.7325
         2.2059       562.0700         0.0490       259.8420        22.0985       -23.6139        86.1089        -3.8101       133.5595       115.1710        81.6401
         2.2143       559.9400         0.0090       -14.3866        25.3965      -229.6133       -72.8678      -134.7711      -122.3105        10.7788       -82.1009
         2.2278       556.5300         0.0101        78.7267         0.0959        18.9659        32.5962        15.4987        56.4528        37.0138        36.3218
         2.2411       553.2300         0.0330         1.1281      -114.4672        19.8531       -31.1620       -68.2976        30.2738       -72.5876       -36.8705
         2.2510       550.7900         0.0019       -13.2546       -71.8381         3.2065       -27.2954       -51.6562        -9.5367       -44.5517       -35.2482
         2.2560       549.5600         0.0101       -40.4721        20.6733        55.0056        11.7356        35.2869        13.8277        -6.9839        14.0436
         2.2688       546.4800         0.0062        27.3341       -63.6087       -50.2729       -28.8492       -72.0440       -16.7919       -23.0370       -37.2909
         2.2771       544.4900         0.0147        -6.3455      -113.3038       -22.5648       -47.4047       -85.1320       -20.4634       -50.6860       -52.0938
         2.2993       539.2300         0.0049       -11.1310        40.8571       -14.5062         5.0733        26.0090       -13.4344        35.4720        16.0155
         2.3381       530.2900         0.0231       -39.8797       103.8434        10.4389        24.8009        70.8113       -12.4076        26.6502        28.3513
         2.3492       527.7700         0.0184       -44.4269        42.2049       -16.4542        -6.2254        29.7252       -34.7324         2.8475        -0.7199
         2.3577       525.8600         0.0092        70.2741      -116.9847         1.3552       -15.1185       -83.9752        30.3758       -26.2863       -26.6285
         2.3642       524.4300         0.0043        22.7702       -72.6840       -47.5233       -32.4790       -69.8324       -13.5521       -35.9974       -39.7940
         2.3755       521.9200         0.0529       216.2469        68.0304        23.0455       102.4409        55.0322        89.8015       172.7339       105.8559
         2.3857       519.7100         0.0221       -36.8492         4.6452       -57.7744       -29.9928       -29.9945       -45.7788       -15.2392       -30.3375
         2.3929       518.1300         0.0035       -24.2958       -67.8203        -4.8610       -32.3257       -61.8888       -26.1217       -35.8281       -41.2795
         2.4078       514.9400         0.0165       -67.3731        -5.1487        28.9790       -14.5143        11.1531       -12.7095       -37.3461       -12.9675
         2.4223       511.8500         0.0007         2.4670         9.0164       -87.8386       -25.4517       -45.3185       -32.0552         4.6785       -24.2317
         2.4402       508.0900         0.0339        -9.5545        -4.6771        -6.8389        -7.0235       -12.2947        -4.6410       -13.8026       -10.2461
         2.4731       501.3300         0.0572       128.4827        30.9990         7.0759        55.5192         5.3833        86.0262        65.6918        52.3671
         2.4842       499.0800         0.0018        -0.6301      -178.9123        31.7143       -49.2760       -90.1091        -0.1399       -63.7582       -51.3357
         2.4937       497.1900         0.0120       -73.1177       -20.1849        34.0217       -19.7603        -1.8166       -13.6957       -40.7203       -18.7442
         2.4948       496.9700         0.0046       -16.3213        35.1354       144.6865        54.5002       104.8340        39.1437         3.0037        48.9938
         2.5089       494.1800         0.0482       104.1460        -0.1950       -72.1547        10.5987       -22.9265        50.7150        36.1788        21.3224
         2.5328       489.5200         0.0623      -125.5771        16.3314         1.5429       -35.9009         7.9432       -39.6639       -76.2472       -35.9893
         2.5432       487.5200         0.0018         5.9284        23.3969      -130.9843       -33.8863       -70.0848       -36.7218        15.0092       -30.5991
         2.5544       485.3700         0.0029        35.0239         4.7881        98.0317        45.9479        96.1514        75.7436        11.5073        61.1341
         2.5732       481.8300         0.0147        55.5800        53.1478        31.6128        46.7802        30.7289        60.6215        19.5916        36.9807
         2.5785       480.8400         0.0372       129.6934       -39.7995        18.6762        36.1900       -13.4015        82.2053        48.4049        39.0696
         2.5964       477.5200         0.0002       -10.2043         0.2879         0.8976        -3.0062         5.7703         2.3396        -4.5019         1.2027
         2.6073       475.5300         0.0065       -14.9177        21.6505        34.1809        13.6379        30.5626         5.7097        -2.7041        11.1894
         2.6209       473.0700         0.0140       112.4222       272.4052        -6.3038       126.1746       173.5780        46.7891       143.7348       121.3673
         2.6307       471.3000         0.1065       214.5444        87.6132       -23.5715        92.8620        67.3008       107.5758       108.5509        94.4758
         2.6477       468.2700         0.0499       -15.7067      -163.6776       -19.6044       -66.3296      -114.2084       -29.2099       -52.5917       -65.3366
         2.6598       466.1400         0.0935        66.0430        65.1910        30.7997        54.0112        55.6509        73.0306        25.1222        51.2679
         2.6811       462.4300         0.0423       183.7882         8.0880       483.4482       225.1082       280.9043       256.3419       142.2104       226.4855
         2.6916       460.6300         0.1257      -235.2740       226.7081       -20.4307        -9.6655       134.4309      -142.0340       -15.5463        -7.7165
         2.7083       457.7900         0.0613       112.4738        68.1867         0.0225        60.2276        52.6591        79.9086        50.4382        61.0020
         2.7219       455.5000         0.0111        -5.8237      -222.3652        95.1703       -44.3395       -84.7904        35.7523       -91.0207       -46.6863
         2.7403       452.4500         0.1511      -163.5016        55.6113       132.7075         8.2724       114.4422       -59.0142       -32.2803         7.7159
         2.7477       451.2300         0.0451        12.0355        65.0278      -292.7976       -71.9114      -209.8844       -78.9488        62.4534       -75.4599
         2.7566       449.7700         0.1778       279.2692       -11.7125         1.8431        89.7999       -10.8303       166.4185       109.0802        88.2228
         2.7679       447.9400         0.3449      -294.8244       138.8298      -179.5108      -111.8352        -4.1480      -262.5259       -64.2977      -110.3239
         2.7874       444.8100         0.2413       227.5777       -77.8913       261.1810       136.9558       118.3635       230.9311        95.0973       148.1306
         2.7940       443.7600         0.7811       -51.0983       -92.8288      -129.2488       -91.0586      -165.2549        21.3329      -146.9316       -96.9512
         2.7964       443.3700         0.5523      -402.5735       -18.3340       252.0382       -56.2898       151.3637       -90.4367      -217.0524       -52.0418
         2.8084       441.4700         0.2024       171.7957        26.4001       -13.9633        61.4109         2.6130        39.3544       137.0288        59.6654
         2.8194       439.7600         0.1724      -189.8478         0.5297       132.4188       -18.9664        75.0897       -43.4439       -85.3041       -17.8861
         2.8329       437.6600         0.0435        72.0998       239.2598       -31.4318        93.3093       142.3195        26.0188       135.3680       101.2354
         2.8486       435.2500         0.9931        54.5141       -94.7154       -53.2548       -31.1520      -107.4646       -19.2312        27.0486       -33.2157
         2.8508       434.9100         0.0888       145.6110        58.5207        -5.9408        66.0636        20.9403        91.1240        79.6108        63.8917
         2.8624       433.1500         0.2930       334.8995        78.5195        -2.1910       137.0760        45.6366       144.8377       225.7814       138.7519
         2.8728       431.5800         0.0311       -40.7348       -23.1087       -92.4630       -52.1022       -71.4610       -38.1061       -47.7826       -52.4499
         2.8801       430.4900         0.0955       197.5264        12.2725       -49.4785        53.4401         7.4947        72.8632        75.2490        51.8690
         2.8991       427.6700         0.2696        74.6538       101.2211        71.3252        82.4000       108.8257        80.8585        66.7904        85.4915
         2.9055       426.7300         0.1579       -21.9574      -312.3443       -79.4236      -137.9084      -252.2629       -34.8661      -180.1579      -155.7623
         2.9198       424.6300         0.0435       133.0134        -7.1445        31.6065        52.4918        24.0602        81.7724        62.3747        56.0691
         2.9361       422.2700         0.6318      -684.5316        30.5959        87.9715      -188.6547        53.3422      -231.6108      -369.1567      -182.4751
         2.9390       421.8600         0.2043         1.9275       -43.9157        -6.5073       -16.1651        -4.7001         9.3640       -59.7435       -18.3599
         2.9534       419.8000         0.0499       -10.3543       -38.8095       110.2955        20.3772        51.4358        27.8018       -26.7231        17.5048
         2.9574       419.2300         0.0849      -117.7736       -85.5130       184.8453        -6.1471        84.2322        68.7757      -153.4784        -0.1568
         2.9649       418.1700         0.3574       216.3208        30.4667       -15.5356        77.0840        -6.1523       167.7803        74.0353        78.5544
         2.9842       415.4700         0.1414      -271.9944       -29.2099       -32.1487      -111.1177       -31.1670      -188.3603      -123.8066      -114.4447
         2.9921       414.3700         0.0498        57.7814        13.4274       -21.9468        16.4207       -15.8009        21.1543        44.9149        16.7561
         3.0094       412.0000         0.0112       -27.2900         0.0890       311.3892        94.7294       192.5950       152.0929       -17.9504       108.9125
         3.0194       410.6300         0.4628      -168.0767        17.5809       -15.1623       -55.2194       -16.2199      -122.1407       -22.6263       -53.6623
         3.0245       409.9300         0.0137        -1.9470       -59.2848       104.5932        14.4538        40.5273        19.8268       -15.7642        14.8633
         3.0319       408.9300         0.0951       -95.5349         0.0796        -0.7707       -32.0753         4.5257       -29.8065       -60.0495       -28.4434
         3.0447       407.2200         0.0078         7.5221        -4.9167       -14.8779        -4.0908        -5.6063       -17.7228         8.6228        -4.9021
         3.0616       404.9600         0.2253       122.1376        -4.2768       232.6661       116.8423       222.3072       149.7509         2.3498       124.8026
         3.0692       403.9700         0.0195        20.6874       -36.1952       -41.3384       -18.9487       -80.8244        -6.4132        18.0732       -23.0548
         3.0912       401.0900         0.0016        -1.9873        -8.0914       -12.5317        -7.5368        -6.7700        -4.4611        -6.3766        -5.8692
         3.0969       400.3500         0.1295       -32.4022       -17.2395       -28.9754       -26.2057       -41.8720       -44.0639        -5.9842       -30.6400
         3.1103       398.6200         0.2557      -206.6726         8.2486       -11.2283       -69.8841        20.1798      -130.7458       -97.2234       -69.2632
         3.1223       397.0900         0.0499        10.4837       -29.9506       -32.0013       -17.1561       -35.5702       -11.1511        -8.6595       -18.4603
         3.1262       396.6000         0.0035         7.9846       -15.7397       -49.2384       -18.9978       -58.7274        -3.9206        -2.7714       -21.8065
         3.1350       395.4800         0.1325       -52.7557       -11.5992       -15.0125       -26.4558         2.1853       -48.1683       -34.3496       -26.7775
         3.1475       393.9100         0.0053         3.8958       -18.0206         3.3148        -3.6033         3.5569         4.6629        -3.0766         1.7144
         3.1544       393.0500         0.0542       -32.8808        72.5316       -71.5098       -10.6197        23.7339       -39.3944       -27.2780       -14.3128
         3.1721       390.8600         0.0041         0.1267        -0.2339       168.7980        56.2303       146.1061        40.7799       -13.5502        57.7786
         3.1814       389.7200         0.0019         1.6084        17.4785       -44.7212        -8.5448        -8.1600       -22.7369         3.8109        -9.0287
         3.1838       389.4200         0.0864       -73.1752       -23.6436         3.1072       -31.2372       -15.8017       -25.3166       -55.6231       -32.2471
         3.1980       387.6900         0.0193       -34.4479       -23.3936        16.6573       -13.7281         5.0773       -33.6165       -20.8464       -16.4619
         3.2087       386.4000         0.0444       -13.7953       -17.1997       -36.4140       -22.4697       -33.5534       -21.5430       -12.5284       -22.5416
         3.2235       384.6300         0.1458      -176.7480        -2.3216       147.1558       -10.6380       103.0149       -73.5757       -38.7588        -3.1065
         3.2285       384.0300         0.0038        -1.0822        29.2600       -25.5107         0.8891       -13.0529         7.2276        14.2589         2.8112
         3.2384       382.8500         0.0027        -4.7972       149.8524        17.9633        54.3395       102.0395         9.0915        94.7599        68.6303
         3.2472       381.8200         0.0533         8.2331        39.2262        -5.4725        13.9956        25.2967        10.3053         5.8110        13.8043
         3.2521       381.2400         0.0132        19.4677        39.7088       -61.5059        -0.7765       -13.9209       -21.7364        35.4799        -0.0591
         3.2615       380.1400         0.0179      -112.7146      -128.2781       -51.4351       -97.4759      -146.9947       -70.8530      -110.8756      -109.5744
         3.2751       378.5700         0.0103        61.3429      -126.5739        13.3442       -17.2956       -87.1003        34.8507       -25.3672       -25.8723
         3.2806       377.9300         0.0402        16.6838        69.8388        48.3466        44.9564       111.2247        28.0758        21.1627        53.4878
         3.2997       375.7400         0.0563       -80.2849         1.5553         2.4272       -25.4341         4.2515       -61.6139       -17.5990       -24.9871
         3.3051       375.1300         0.0351       -72.3686       212.9923       -57.2688        27.7850        86.0440        14.3817       -12.3830        29.3475
         3.3106       374.5100         0.0054        -0.7504        20.7788        -6.4665         4.5206        50.2418       -41.0949         2.6480         3.9316
         3.3152       373.9900         0.0245       103.5162       -29.3125        25.6423        33.2820       -39.2595        67.9734        64.0889        30.9342
         3.3177       373.7100         0.0277         4.6567       -21.6816       -22.9510       -13.3253      -136.9945        98.2645        -4.3438       -14.3579
         3.3306       372.2600         0.0126        -4.9164      -209.3962         9.5046       -68.2693      -166.6487        -5.4015       -53.5476       -75.1993
         3.3333       371.9600         0.0048        15.1572        44.7679       -25.3497        11.5251         3.1017        10.5274        31.6873        15.1055
         3.3424       370.9400         0.0213        22.7138        34.7541        33.7758        30.4146        72.6170        22.0049        -2.2217        30.8000
         3.3489       370.2200         0.0234        26.4516        76.1406        -1.5943        33.6660        62.8491        18.1142        30.4641        37.1425
         3.3683       368.0900         0.0120        -4.1720        -2.9742       109.6649        34.1729        49.1790        72.1947       -11.3908        36.6610
         3.3730       367.5800         0.0108        -6.2428       -13.1524         4.8041        -4.8637         9.2448         3.5690       -26.6724        -4.6195
         3.3872       366.0400         0.0195       -28.8492        -9.8794        55.4471         5.5728        59.2235       -10.3958       -27.7538         7.0246
         3.3968       365.0000         0.0171        41.3507       -44.6509       -12.2259        -5.1754        -0.6358       -51.3163        12.5710       -13.1270
         3.4076       363.8500         0.0368        17.9341      -249.9772        -0.7074       -77.5835      -215.1200         2.6660       -57.3999       -89.9513
         3.4099       363.6000         0.0192        -5.2548        -7.3120      -144.0555       -52.2074      -103.4382       -69.8805        -8.5129       -60.6106
         3.4232       362.1800         0.0188        -8.8100        19.6733      -125.8203       -38.3190       -59.6582       -74.4834        -0.5177       -44.8864
         3.4341       361.0400         0.0186        -2.3942      -123.2883        58.1633       -22.5064        28.7476       -41.5902       -56.0794       -22.9740
         3.4448       359.9200         0.0217        18.0201       174.3163        -1.0825        63.7513       194.7276        12.3041         7.3294        71.4537
         3.4526       359.1000         0.0248       -13.8755       -10.2141        11.7012        -4.1294       -22.9235        20.7213        -5.1910        -2.4644
         3.4675       357.5600         0.0429       -11.8206       291.1234        -3.7843        91.8395       213.1089        -7.0029       106.8792       104.3284
         3.4711       357.1900         0.0225       -32.9516       -39.4216       -12.2707       -28.2146       -34.8024       -28.3758       -17.5183       -26.8988
         3.4779       356.4900         0.0253       -12.4604       295.5319       -73.1264        69.9817       181.2993       -11.8436        83.1891        84.2149
         3.4909       355.1700         0.0196         5.9555        -0.9768       -95.8579       -30.2931       -55.9295       -48.1263        -1.2337       -35.0965
         3.4951       354.7400         0.0014        -1.6724        -9.6720         3.8205        -2.5080        -8.3816         2.5869        -3.4220        -3.0722
         3.5010       354.1400         0.0061         6.5921        31.2464        34.5389        24.1258        38.6633         4.6587        28.5735        23.9652
         3.5068       353.5600         0.0177        35.8242        24.5929        -3.3809        19.0121        10.2912        19.8667        25.4354        18.5311
         3.5140       352.8300         0.0331       -25.4968      -118.0672         3.7719       -46.5974       -85.1367        -9.3003       -64.0850       -52.8407
         3.5222       352.0100         0.0116        -4.7299       149.7526      -138.0285         2.3314         0.5820       -34.6776        50.2987         5.4010
         3.5305       351.1800         0.0012       -10.3993         4.2598         6.8837         0.2481         8.1554        -1.6761        -2.1671         1.4374
         3.5401       350.2300         0.0334      -147.2206         5.3792      -215.9905      -119.2773      -167.6730      -125.7773       -91.6097      -128.3533
         3.5472       349.5300         0.0127       -10.0932         1.6951        74.0409        21.8809        10.2366        60.2110         6.6672        25.7050
         3.5478       349.4600         0.0143       -28.0764        13.9121       -51.9992       -22.0545       -42.9460       -13.1110       -18.5180       -24.8583
         3.5596       348.3100         0.0159      -143.3100       -21.2856        40.9641       -41.2105        41.0299       -72.2037       -78.3341       -36.5026
         3.5721       347.0900         0.0341       -22.7639       -93.5851        -1.6196       -39.3229       -66.1911       -14.5116       -45.3051       -42.0026
         3.5790       346.4200         0.0108         3.2138       -77.5246       167.5793        31.0895       129.8433         0.4198       -25.6247        34.8795
         3.5834       346.0000         0.0269        -1.8552      -209.8792        -3.2026       -71.6457      -184.8520        -2.4133       -54.3220       -80.5291
         3.5946       344.9200         0.0240       -45.1983        15.5241       -81.9747       -37.2163       -37.5513       -60.3323       -19.3236       -39.0691
         3.6004       344.3700         0.0047         2.0673       -52.2031       -56.1445       -35.4268       -74.5702       -42.5619        -6.7303       -41.2875
         3.6082       343.6200         0.0085        -8.0752       -30.4175       -21.8958       -20.1295        10.5621       -57.2239       -22.0102       -22.8907
         3.6149       342.9800         0.0278        62.8972       -72.3507       -14.0569        -7.8368        62.8071       -44.3178       -60.0564       -13.8557
         3.6195       342.5500         0.0123         8.7230      -128.5402        22.5637       -32.4178      -103.8404        12.5618       -15.4324       -35.5703
         3.6280       341.7400         0.0122        10.3803        51.5573        18.2179        26.7185        19.9474        22.6801        50.1774        30.9350
         3.6352       341.0600         0.0065        -0.1103      -110.9972       -11.0733       -40.7269      -105.0104       -15.7542       -22.7108       -47.8251
         3.6416       340.4600         0.0120         1.9818       -35.1536         0.7510       -10.8069       -36.3115         4.0050        -5.9740       -12.7601
         3.6438       340.2600         0.0025        16.3967        -8.1982         0.1777         2.7921       -13.3440         5.7785        10.7337         1.0561
         3.6607       338.6900         0.0181        28.7987      -327.9197       -84.2217      -127.7809      -391.4996        16.2152       -74.6591      -149.9811
         3.6643       338.3600         0.0088        -3.4017      -121.8987       -13.0321       -46.1108      -201.4455        -4.5107        62.0128       -47.9811
         3.6690       337.9200         0.0047        -1.7488        -2.4939       -87.2874       -30.5100       -57.7669       -42.4277        -2.7067       -34.3005
         3.6767       337.2200         0.0074       -12.7916         7.9440        35.4204        10.1909         4.2409        13.7456         9.3463         9.1109
         3.6831       336.6300         0.0024         0.0663       -48.4494       -12.0656       -20.1495       -43.0401        -2.8994       -14.6496       -20.1963
         3.6855       336.4100         0.0119        13.7621        -2.2986        20.7466        10.7367        38.7229       -21.9081        17.2353        11.3500
         3.6932       335.7100         0.0021        -0.0761        -5.9260        13.8379         2.6120        18.3873        -0.8775        -6.7658         3.5813
         3.6991       335.1800         0.0195       -31.4893        51.1629        91.9281        37.2005        46.4262         0.8616        93.1642        46.8173
         3.7051       334.6300         0.0046        -1.5546        61.9506        18.3973        26.2644        43.0095         3.3889        31.9692        26.1225
         3.7104       334.1500         0.0394        36.2506        94.8281        -1.4228        43.2186        54.6256        22.5297        67.1653        48.1069
         3.7138       333.8500         0.0141         1.6591       -19.0687        95.3064        25.9656        93.9674       -16.3479         8.7272        28.7822
         3.7192       333.3600         0.0074        22.9843        -0.7700        27.2314        16.4819        17.1882        20.4371        14.9782        17.5345
         3.7225       333.0700         0.0061        46.1422        10.8809        31.7371        29.5868        36.7725        20.5797        25.4778        27.6100
         3.7293       332.4600         0.0116       -55.1306       -25.5776       -88.5588       -56.4223       -91.5176       -59.8518       -31.0155       -60.7950
         3.7329       332.1400         0.0349       -19.5963        -6.0396        42.0996         5.4879        15.7260        15.5104       -20.0606         3.7253
         3.7406       331.4600         0.0076        35.2313       -14.0988        -3.4641         5.8895       -74.1972        25.0687        62.7897         4.5537
         3.7458       330.9900         0.0157       -34.3771        51.4222         4.1311         7.0587        58.9907       -12.3884       -12.0622        11.5134
         3.7470       330.8900         0.0253      -116.1805        25.9866        -5.8683       -32.0207        -4.8454       -21.3345       -58.9616       -28.3805
         3.7527       330.3900         0.0303       -11.5280       187.7298       -49.2860        42.3053        81.2261       -13.7140        72.3712        46.6278
         3.7583       329.9000         0.0093        29.5215         2.8359        43.1634        25.1736        20.4621        49.4080         0.1786        23.3496
         3.7585       329.8800         0.0139        14.4446       -69.8925        17.9606       -12.4958       -31.0066        -4.6638         1.9945       -11.2253
         3.7650       329.3100         0.0257        10.3413       -50.0749        24.9126        -4.9403       -82.2423        17.6090        46.8437        -5.9299
         3.7698       328.8900         0.0165       -29.3423        20.3792         9.9375         0.3248       -23.0275        50.9713       -16.5136         3.8101
         3.7773       328.2400         0.0048        -4.0645        17.3218       -35.3008        -7.3478       -53.3446        -3.5859        32.5328        -8.1326
         3.7810       327.9200         0.0167         0.7809      -120.4880        68.8440       -16.9544       -22.9083        63.2797       -95.7494       -18.4594
         3.7854       327.5400         0.0377       -36.6613       -12.6587        -6.7377       -18.6859       -66.7961       -15.4884        27.0111       -18.4245
         3.7911       327.0400         0.0155        39.8665        74.1574        60.8310        58.2850       113.4635        41.5671        27.4777        60.8361
         3.7939       326.8000         0.0520      -195.1541        31.6115       -33.6358       -65.7262       -73.6634      -111.8190         6.1028       -59.7932
         3.7980       326.4400         0.0279       -14.3280       -12.8520       -77.2489       -34.8096        -1.1803       -93.7882       -15.6560       -36.8748
         3.8021       326.1000         0.0068       -51.4961       -67.8225        30.3615       -29.6524       -14.5460       -22.8739       -55.4350       -30.9517
         3.8075       325.6300         0.0037         2.1681        14.2177       -10.2940         2.0306        -4.8824         5.6954        13.2576         4.6902
         3.8114       325.2900         0.0356        -0.1385         6.9801       -45.8709       -13.0097       -31.6805       -28.7028        19.9656       -13.4726
         3.8187       324.6800         0.0315         2.8189       141.1683       -28.7942        38.3977       -18.0866         6.7511       129.8906        39.5184
         3.8252       324.1200         0.0082       -22.0220        89.2045        -0.5875        22.1984        94.1135       -11.1037        -6.1096        25.6334
         3.8271       323.9600         0.0126        -2.1274        -5.8200      -114.5213       -40.8229      -149.9404        22.8278        -3.1998       -43.4375
         3.8311       323.6300         0.0156        15.5660        17.7002        31.8794        21.7152       151.9993       -95.4732        14.1644        23.5635
         3.8334       323.4300         0.0115       -37.6508       -54.8779       -12.2280       -34.9189       -55.0034       -17.9296       -36.7269       -36.5533
         3.8362       323.2000         0.0211        -9.0117        -1.7465       -44.3588       -18.3723         8.0416       -63.1456        -4.4413       -19.8485
         3.8434       322.5900         0.0229        40.6533       -29.3303        76.1729        29.1653        59.9004         4.5571        26.0735        30.1770
         3.8514       321.9200         0.0160         0.5287       -49.5045      -127.1082       -58.6947      -186.8230        37.6324       -44.3281       -64.5063
         3.8531       321.7800         0.0146        15.2237         9.4570         6.4017        10.3608        -8.4751         0.0507        41.9595        11.1784
         3.8581       321.3600         0.0476      -109.7489        21.6379        25.7244       -20.7955       138.5361      -148.3852       -43.5775       -17.8089
         3.8625       321.0000         0.0259       -11.7306        -8.6688      -126.8548       -49.0848      -114.1482       -41.0775        -5.4627       -53.5628
         3.8658       320.7200         0.0142        -3.0829        -2.6068       -60.9017       -22.1971        -3.0598        -8.3101       -63.4063       -24.9254
         3.8702       320.3500         0.0126       -90.5467       -22.6886       -16.3836       -43.2063        -6.6370       -53.1762       -58.5411       -39.4514
         3.8708       320.3100         0.0215       -30.8968         7.2119        11.7190        -3.9886       -10.6945         6.6998        -7.4767        -3.8238
         3.8763       319.8600         0.0008        -2.6801        13.7884        -0.2573         3.6170        24.3649         0.0849        -7.2554         5.7315
         3.8822       319.3700         0.0241       -17.6108       126.8263      -144.2903       -11.6916       -61.7630       -12.3182        52.7791        -7.1007
         3.8841       319.2100         0.0198        10.7483       143.9970       127.7475        94.1643       200.8236        21.1797        79.2018       100.4017
         3.8897       318.7500         0.0066        11.1816         5.9499        55.4041        24.1785        42.5025        22.9035        11.0815        25.4958
         3.8934       318.4500         0.0135        45.6828        -8.9669         2.3543        13.0234       -24.5305        22.3702        39.7155        12.5184
         3.8975       318.1100         0.0372       -76.3110      -119.7109      -179.4581      -125.1600      -186.6279      -137.3742       -70.4580      -131.4867
         3.9004       317.8700         0.0105        10.3249         0.2046        50.6587        20.3960        44.3659         0.4901        22.1486        22.3349
         3.9039       317.5900         0.0298       -27.5736       -21.9677       -69.8508       -39.7974       -37.0522       -92.8970         7.7029       -40.7488
         3.9071       317.3300         0.0043       -10.7293        -6.6207         3.1797        -4.7234       -24.0146        10.0270         0.7674        -4.4067
         3.9148       316.7000         0.0161       -23.3612         2.8897        98.6717        26.0667       114.4878         1.0856       -27.7929        29.2602
         3.9183       316.4200         0.0324       -49.2842       -50.3027       -87.5638       -62.3835       -88.5733       -36.9651       -64.6431       -63.3939
         3.9226       316.0800         0.0093        55.4037        21.3317       -98.8048        -7.3565       -56.3430        10.1604        34.0454        -4.0457
         3.9277       315.6600         0.0143        -4.8847       -52.9061        -1.9185       -19.9031       -35.8940        -1.6497       -22.8829       -20.1422
         3.9306       315.4300         0.0078       -12.2428        52.8737       -52.1647        -3.8446        27.4494        -7.1341       -35.3708        -5.0185
         3.9330       315.2400         0.0209        -0.1107       -40.8595      -116.8378       -52.6027      -141.3584       -37.9086         9.4340       -56.6110
         3.9368       314.9400         0.0377       -33.3803       167.8469        17.5401        50.6689       174.2875        -8.4902        -3.2953        54.1673
         3.9403       314.6600         0.0052         4.9471        28.9258         8.0290        13.9673        76.6241       -19.3119        -9.9639        15.7828
         3.9468       314.1400         0.0146       -26.4843        -3.0216       -25.8978       -18.4679        -3.4929       -15.0860       -36.7697       -18.4495
         3.9502       313.8700         0.0104       -75.0027       -36.8385        91.0807        -6.9201        83.5836       -24.7968       -73.2846        -4.8326
         3.9509       313.8100         0.0222         3.5909       -67.6491         0.1386       -21.3065       -48.9190        -1.9189       -18.5422       -23.1267
         3.9526       313.6800         0.0188        21.5577        -3.6480        -1.0818         5.6093         2.8546         0.6146        20.1138         7.8610
         3.9545       313.5200         0.0043        -0.6909        68.1787        -9.4687        19.3397        43.8975        -7.3450        21.0659        19.2061
         3.9586       313.2000         0.0157        22.1745        37.8507      -145.8664       -28.6137      -147.5366        51.6746         1.0567       -31.6018
         3.9674       312.5100         0.0349       -32.7520       -31.5924         8.9195       -18.4750        -1.6669       -23.7315       -35.6244       -20.3409
         3.9701       312.3000         0.0076        -0.0516        -8.2112        55.3692        15.7022        31.9914         1.4965        23.9247        19.1376
         3.9728       312.0800         0.0133         0.8610        -0.1613        39.8491        13.5163        81.8205       -42.4375         2.5716        13.9849
         3.9766       311.7800         0.0050         1.6248        22.9878       -48.9360        -8.1078       -67.3920        31.9783         9.7543        -8.5531
         3.9831       311.2700         0.0014       -16.7859         7.8491         0.2604        -2.8921         5.4268        -2.3650       -15.0102        -3.9828
         3.9859       311.0600         0.0170        47.3782       -27.6164       -47.6662        -9.3014      -100.8494        22.6700        37.1483       -13.6771
         3.9887       310.8400         0.0193        -7.4069        83.5998      -175.7545       -33.1872      -179.4719        12.1148        47.0521       -40.1017
         3.9931       310.4900         0.0204        12.7828       -26.6636        15.6773         0.5989        30.5846       -33.3018         3.1242         0.1357
         3.9945       310.3800         0.0067        33.0919        -7.9907      -111.5619       -28.8202      -157.8518        38.1545        19.5710       -33.3755
         3.9957       310.3000         0.0170        30.4636         3.7711       -47.5604        -4.4419       -22.4115        -3.5310         6.9635        -6.3263
         4.0026       309.7600         0.0379       -25.4832        53.1467        12.0764        13.2466        94.1942         7.0667       -56.5624        14.8995
         4.0071       309.4100         0.0102        -9.1926        36.1947       -36.7260        -3.2413         2.5294       -17.1141        11.9740        -0.8703
         4.0111       309.1000         0.0041       -13.1638        17.0791        60.1822        21.3658        65.3116        11.9702        -6.8317        23.4834
         4.0142       308.8700         0.0045         9.0356         0.6044       -35.1752        -8.5117       -29.1297        -9.5810         7.2764       -10.4781
         4.0159       308.7300         0.0645       -44.6594      -106.2025         0.0581       -50.2679      -139.3486       -27.0548         5.1988       -53.7349
         4.0195       308.4600         0.0414        -2.0970        34.5738       180.5489        71.0086       271.3039       -28.3602        -8.1360        78.2693
         4.0243       308.0900         0.0186        58.5890        -1.3065       -15.5410        13.9138       -15.4350        21.8942        34.8538        13.7710
         4.0255       308.0000         0.0074       -35.1787         9.0800        -7.2399       -11.1129        10.6384       -12.9978       -25.3590        -9.2395
         4.0298       307.6700         0.0038       -37.6760        30.1954        -9.4839        -5.6548        51.1396        -6.8307       -53.8730        -3.1881
         4.0307       307.6000         0.0044        16.6624        29.7903        49.6102        32.0210        91.7621        -1.6798        14.6579        34.9134
         4.0335       307.3800         0.0182       -25.7003        35.0862        25.8342        11.7400        76.0936       -14.4428       -16.3627        15.0960
         4.0347       307.2900         0.0177        -4.3875        32.9668      -248.2490       -73.2232      -130.4005       -11.8566       -90.2742       -77.5104
         4.0410       306.8200         0.0140        19.0017        11.9196        74.5033        35.1415       136.3699        -6.8344       -23.2055        35.4433
         4.0441       306.5800         0.0196         8.5639       124.7185        79.9611        71.0811       203.9904         4.5614        18.3715        75.6411
         4.0480       306.2900         0.0366         0.3111       -22.9467       -54.1651       -25.6002      -102.1060        26.9431        -7.1364       -27.4331
         4.0543       305.8100         0.0280        22.6756       -38.3853         0.0873        -5.2075       -36.3295        14.5409         6.3468        -5.1473
         4.0576       305.5600         0.0130       -12.0333        43.0381       -22.4918         2.8376       -23.7217        31.2303         2.8540         3.4542
         4.0587       305.4800         0.0318        10.6360      -109.0221        -1.6205       -33.3355      -182.9327         9.1280        60.3001       -37.8349
         4.0652       304.9900         0.0072        -1.8535        10.8926        -2.0206         2.3395        -5.4282         2.6310        11.4204         2.8744
         4.0683       304.7500         0.0041        -0.2332        95.2614        -0.9775        31.3502       126.6091         0.2814       -19.7137        35.7256
         4.0704       304.6000         0.0076         3.5087       -25.1972       -12.0590       -11.2492        -7.3784        -4.5589       -24.1081       -12.0151
         4.0723       304.4500         0.0191       -15.2457       -22.1270       -78.3759       -38.5829       -96.7839        -2.9633       -16.6821       -38.8098
         4.0754       304.2200         0.0063        16.0190         3.5796        78.5336        32.7107       117.4631       -10.4255         3.8501        36.9626
         4.0790       303.9600         0.0035        -1.1701        -5.6063       -32.2576       -13.0113       -39.3046        -3.4085        -0.5590       -14.4240
         4.0825       303.6900         0.0172        -3.5472       -66.2394        55.2432        -4.8478       -15.6845         0.2489        -1.4876        -5.6411
         4.0869       303.3700         0.0004         0.0002        -0.0128       -21.6016        -7.2047       -31.0870        10.5355        -1.4706        -7.3407
         4.0883       303.2600         0.0016        27.6652        28.8448        -6.6504        16.6199        24.0343        16.5696        12.2659        17.6233
         4.0897       303.1600         0.0065       -30.5979       -49.1684        -8.7677       -29.5113       -65.4596        17.6537       -44.3865       -30.7308
         4.0938       302.8600         0.0107       -16.2602       -17.9771        29.1913        -1.6820       -32.0477        21.8618         7.0320        -1.0513
         4.0961       302.6900         0.0053        -4.2646         5.6533        34.3477        11.9121        16.4670        25.8370        -4.5309        12.5910
         4.0984       302.5200         0.0232       -12.5345      -207.5004         2.5537       -72.4937      -251.8829       -13.4403        42.5798       -74.2478
         4.1028       302.2000         0.0093         8.5073       -71.3913         3.1045       -19.9265       -81.0935         4.7741         9.1060       -22.4044
         4.1046       302.0600         0.0230         9.1394       -34.6999       145.7822        40.0739       165.7014       -30.9153        -0.8863        44.6333
         4.1097       301.6900         0.0013         9.2754         1.7920         7.6569         6.2414        12.0002         0.2272         5.1714         5.7996
         4.1133       301.4200         0.0017         5.7115        -8.9347       -12.5067        -5.2433         8.1933       -18.3467        -7.3338        -5.8291
         4.1158       301.2400         0.0036       -24.9986       -54.9338       -35.2516       -38.3947       -72.1743       -15.3908       -20.9414       -36.1688
         4.1206       300.8900         0.0049        39.6377        13.3419         7.8735        20.2844        29.5078        19.4908         9.2611        19.4199
         4.1209       300.8600         0.0273         0.4573       -11.8129        17.9208         2.1884       -36.1531        -1.4959        44.9496         2.4335
         4.1243       300.6200         0.0179       -72.0139         3.5832        -3.9550       -24.1286        -3.7626       -30.7941       -27.5058       -20.6875
         4.1267       300.4400         0.0220       -27.5708       -31.0629        82.2121         7.8595        74.3812       -25.1085       -18.3447        10.3094
         4.1287       300.2900         0.0721       -55.1472        32.3869        15.8609        -2.2998        27.8150       -27.8699         0.3778         0.1076
         4.1330       299.9800         0.0183        22.5599        81.5586         3.0287        35.7157        94.3911        19.0914        -2.5938        36.9629
         4.1356       299.8000         0.0273        52.3214       -88.9406        43.5472         2.3094         2.5843       -33.5458        26.4999        -1.4872
         4.1386       299.5800         0.0160       -12.4271         0.6613       -28.3796       -13.3818       -86.6686        45.4950        -1.9761       -14.3832
         4.1427       299.2800         0.0085        -4.9244        37.8431        51.1531        28.0239        51.7325        22.2441        17.6267        30.5345
         4.1432       299.2500         0.0291       -85.0651       -29.1700       -34.5353       -49.5901         0.3064       -13.8109      -129.3968       -47.6338
         4.1474       298.9500         0.0231       -10.4355       101.9457       -18.4925        24.3392       101.3991       -10.3075        -8.7594        27.4441
         4.1485       298.8700         0.0099        10.1350        12.9496        34.5883        19.2243        18.8103         4.4168        36.2179        19.8150
         4.1512       298.6700         0.0019         0.0059       -10.8668         4.2514        -2.2032       -24.6267         1.7039        14.3199        -2.8676
         4.1551       298.3900         0.0125         1.3334      -165.0140        48.3638       -38.4389       -37.5243        20.9198      -111.8494       -42.8180
         4.1578       298.2000         0.0301        33.6630        66.5365        79.4219        59.8738       135.9166        19.0997        35.2296        63.4153
         4.1607       297.9900         0.0143       -73.6897        62.9672         8.4579        -0.7548        52.9664       -28.4408       -24.1639         0.1206
         4.1628       297.8400         0.0065       -14.6690        14.0148        28.7340         9.3600        31.6912        16.2264       -13.1999        11.5725
         4.1651       297.6800         0.0048        24.7676        -2.4588        23.8739        15.3942         2.8339        31.3486        10.4350        14.8725
         4.1666       297.5600         0.0143       -43.1600        51.5628        42.7565        17.0531        12.4481        26.0329        27.6201        22.0337
         4.1714       297.2200         0.0171         2.0402        11.4521        -5.6940         2.5994        -2.3601        -2.7064        16.1179         3.6838
         4.1736       297.0700         0.0110        -8.6537        88.9348      -164.5661       -28.0950       -18.7429       -73.5329         1.8257       -30.1500
         4.1779       296.7600         0.0085        14.1768       -91.5540       -10.4392       -29.2721      -133.7622        11.7559        26.6599       -31.7821
         4.1792       296.6700         0.0090         9.8907         5.7199        -7.4398         2.7236         0.4586        -1.2763         9.4810         2.8878
         4.1811       296.5300         0.0183       -64.6408      -106.9641         4.6707       -55.6447       -88.8714       -10.9706       -72.1499       -57.3306
         4.1832       296.3800         0.0074        48.4689        15.0092        15.4995        26.3258        34.1055        23.3594        21.0431        26.1693
         4.1841       296.3200         0.0030        -7.0660       -71.8687        -7.1594       -28.6980       -71.8170        -5.8505       -10.9906       -29.5527
         4.1874       296.0900         0.0087        -0.4407       -32.3815        61.6862         9.6213         6.1210        53.6341       -23.3311        12.1413
         4.1897       295.9200         0.0046         0.9289        12.6914        11.2154         8.2786        15.5832        15.7814        -4.3036         9.0203
         4.1949       295.5600         0.0290       125.7736         9.1559      -175.5665       -13.5457       -56.9602       -52.4491        52.0984       -19.1036
         4.1984       295.3100         0.0308        -1.9978        -2.5031        21.2838         5.5943        -6.8794        31.0549        -6.2243         5.9837
         4.2001       295.1900         0.0353        75.9608       -18.5034       -17.4172        13.3467      -107.3010        64.9103        76.5644        11.3912
         4.2020       295.0600         0.0239        63.3149         0.6560       -30.6509        11.1067      -130.1806         4.0372       150.9493         8.2687
         4.2037       294.9400         0.0041        11.7968        -3.2848        23.5924        10.7014        28.7488         1.0261         5.8538        11.8762
         4.2045       294.8800         0.0216         8.7748      -112.6332       -15.4156       -39.7580       -42.0600       -47.0998       -41.4021       -43.5207
         4.2077       294.6600         0.0188       -37.2693       -25.0037         2.3077       -19.9884       -17.7697       -25.3361       -11.9373       -18.3477
         4.2107       294.4500         0.0150        51.6926       -43.0804        74.3228        27.6450        70.0354         8.2720         5.4110        27.9061
         4.2134       294.2600         0.0159        -3.1408       255.3917        75.0873       109.1127       243.7214        66.3062        59.6124       123.2133
         4.2164       294.0500         0.0042        25.2753        14.2752       -40.9441        -0.4645       -13.2905         0.1147         8.2490        -1.6423
         4.2181       293.9300         0.0029        34.9164        19.3375        19.0169        24.4236        32.8556        24.0971        13.9877        23.6468
         4.2197       293.8200         0.0356        -7.9953       115.1378        56.1280        54.4235        41.1329        39.7234        95.5958        58.8174
         4.2228       293.6100         0.0013         8.4840        -7.5068        -2.4070        -0.4766       -16.5667         0.9689        12.8097        -0.9293
         4.2251       293.4500         0.0129        41.6288         0.7806       125.4189        55.9427       101.8125        70.7805         4.2485        58.9472
         4.2277       293.2700         0.0040        -1.3491         0.3928       -23.6707        -8.2090        -9.6773       -16.9025        -0.3397        -8.9732
         4.2284       293.2200         0.0095        13.0760       -55.8939         9.2636       -11.1847       -34.7148         7.5608       -12.5961       -13.2500
         4.2320       292.9700         0.0395       -80.6289         4.9104        38.5499       -12.3895         6.5908        15.5898       -49.4889        -9.1028
         4.2347       292.7800         0.0142       -16.7791       -50.5883        -6.1640       -24.5105       -13.2940       -17.5779       -39.6328       -23.5016
         4.2374       292.6000         0.0180        -5.6533       -19.9051       -61.1233       -28.8939       -56.7979       -32.8121        -1.7320       -30.4473
         4.2426       292.2300         0.0034         2.0504        -6.7344        -4.0565        -2.9135        -5.4367         5.5698       -10.2308        -3.3659
         4.2448       292.0900         0.0208       -34.3599       -14.1861        55.9539         2.4693        66.3049       -35.3694       -22.5157         2.8066
         4.2477       291.8900         0.0186        -8.5503        34.4814       -35.8871        -3.3186        29.8707       -55.9073        14.9319        -3.7016
         4.2482       291.8500         0.0326        74.3036        65.2280         8.5117        49.3478        42.0680        59.8471        47.4918        49.8023
         4.2495       291.7600         0.0096        19.9406       -26.7381        25.8875         6.3633       -41.1732        44.8765        11.4355         5.0462
         4.2537       291.4700         0.0167        27.2899        65.3223         4.4203        32.3442        73.1448         7.9941        23.0832        34.7407
         4.2548       291.4000         0.0060         7.4932         2.0416        -3.1555         2.1264         3.9406        -2.3441         3.7610         1.7858
         4.2575       291.2100         0.0151         0.9628         5.6028        60.5093        22.3583        22.4601        41.8714         3.9686        22.7667
         4.2602       291.0300         0.0459        21.1314        28.0046       135.9850        61.7070       102.8001        67.0827        28.3283        66.0704
         4.2629       290.8500         0.0197        67.5201         5.9253        25.8083        33.0845        -8.4971        69.3393        38.3610        33.0677
         4.2638       290.7800         0.0024       -24.4013        -4.6251        -2.5563       -10.5276         0.9988       -12.5972       -21.1768       -10.9251
         4.2659       290.6400         0.0346       -24.5416       190.4969        19.7677        61.9077       121.1762        -2.8387        79.3142        65.8839
         4.2698       290.3700         0.0133        11.5316       -15.0435        21.5133         6.0005        30.3936       -11.1493         1.5164         6.9203
         4.2706       290.3200         0.0315       -20.7200       -78.1839        -9.2317       -36.0452        14.3355        -7.9571      -114.7579       -36.1265
         4.2737       290.1100         0.0259        27.7866        21.1600       -20.3246         9.5407        19.5929       -18.6176        22.9110         7.9621
         4.2783       289.8000         0.0034         4.6000        14.1277         1.8822         6.8700        19.1834         1.0253         2.0147         7.4078
